nChannel	strChannelName	indStart	indStop	indDuration	Event_RMS	Window_RMS	EventPeak2Peak	SNR	Amplpp	PowerTrough	Ftrough	PowmaxFR	fmax_FR	EvPassRejection
1	Fp1-Fp2	111464	111543	79	3.43214614255882	1.48940919742193	13.2491268834621	5.31010955592902	13.3375876492651	0.411442086644962	78	0.615653358777283	108	1
1	Fp1-Fp2	166450	166529	79	3.44144904792452	1.57025579857964	11.4971874606529	4.80332393572256	12.9882428803008	0.301760292200125	80	0.468466203275587	107	1
1	Fp1-Fp2	490840	490913	73	3.75033258108828	1.37522839984304	12.6937369560605	7.43686505207962	12.6937369560605	0.253529970403172	87	0.661018364436286	110	1
2	Fp1-F7	107423	107469	46	2.41181730229345	1.25371008484878	7.41298310992303	3.70079112737756	8.4390797982639	0.386328653051678	179	1.44104611780029	178	0
2	Fp1-F7	522063	522136	73	3.62244357005997	1.31076272161609	13.308069663302	7.63756808396058	13.308069663302	0.333033368648366	116	2.05030109684024	115	1
5	T5-O1	403507	403557	50	4.2140080501867	3.13861523697152	16.0863365606944	1.98426156147036	31.5772371104006	0.532559239162025	129	2.34014930065443	202	0
5	T5-O1	403743	403801	58	6.28572568418015	3.10744625152907	23.22430341505	4.18354601736491	31.5772371104006	1.81574795342185	116	1.92162061559251	115	1
5	T5-O1	405146	405193	47	4.43603392503569	2.89926295154748	15.6852812068873	2.33776171232758	23.8158871615357	0.485285252431381	130	2.45183642785408	216	0
5	T5-O1	406185	406327	142	4.96328211034602	3.03451689104378	24.9532113007035	2.67658966968439	26.2897993749478	1.19260841498866	157	2.30541939308526	156	0
6	Fp2-F8	18523	18605	82	4.15268603180635	1.629728151622	15.6372344797804	6.49273771313961	15.6372344797804	0.53833812426705	107	0.583806468533049	106	1
6	Fp2-F8	81709	81784	75	3.98356200905779	1.89860048611677	13.1339443785779	4.40226303736009	14.3469202326339	0.362308453704402	99	0.506597481131025	108	1
6	Fp2-F8	207278	207376	98	4.64864879762619	1.52627191007964	17.1538947106172	9.27661751797056	17.1538947106172	0.31765726429348	227	0.49944373560407	300	1
6	Fp2-F8	217165	217248	83	3.56360651260142	1.60859326202574	12.9325292054959	4.90780159529501	12.9325292054959	0.645286024974643	125	0.732467221067712	124	1
6	Fp2-F8	248650	248714	64	3.22106203533332	1.51936873308063	12.1798823513533	4.49440089635794	12.1798823513533	0.590638723540228	83	0.575529697718439	82	1
6	Fp2-F8	337673	337752	79	4.32245412572254	1.50772210374922	16.0311481661453	8.2189848895692	16.0311481661453	0.657863770869084	118	0.481275628857534	117	1
6	Fp2-F8	389126	389265	139	4.25047044816389	1.57167748638231	14.9641681380635	7.31386833467588	14.9641681380635	0.456284038270328	100	0.534048935927492	111	1
6	Fp2-F8	462107	462314	207	4.13719179211423	1.45917234149785	19.9193210996231	8.03892784758281	19.9193210996231	0.515492505306679	92	0.581254844016476	107	1
6	Fp2-F8	467769	467830	61	3.74909113028967	1.50530874197076	12.5779500778472	6.20298636615924	12.6938337705313	0.521632551145889	99	0.571160247656389	115	1
6	Fp2-F8	474122	474207	85	3.68260355790607	1.47181304063958	13.9253521482216	6.26043691603501	13.9253521482216	0.407554619540993	105	0.507601874695018	113	1
6	Fp2-F8	498955	499066	111	3.23523771639685	1.44622374867138	11.892110634118	5.00427786537147	11.892110634118	0.431786853292551	104	0.435351832414409	113	1
6	Fp2-F8	524292	524377	85	3.78846312326175	1.44779752037557	13.5504688925257	6.84715992339639	13.5504688925257	0.463168342625413	113	0.54281669608829	112	1
6	Fp2-F8	543014	543101	87	3.56234207532763	1.4946731664388	12.2193609163602	5.68039799265619	12.2193609163602	0.315023512978202	112	0.324282706917803	111	1
6	Fp2-F8	583677	583749	72	5.19190152496484	1.41581799307092	19.8014242710553	13.4473911808443	19.8014242710553	0.876124857391516	97	0.935510180634791	121	1
6	Fp2-F8	588921	589069	148	4.08761084151621	1.45939938223249	15.7727554234731	7.84496063242677	15.7727554234731	0.428743281528703	NaN	2.35867124578343	300	1
7	F8-T4	90888	90930	42	2.99801967029162	1.36731285251907	10.0948927967773	4.807653547671	10.0948927967773	0.851986988733849	134	0.937358517569937	163	1
7	F8-T4	111457	111558	101	4.71105105710443	1.44481163157194	17.737549287309	10.6319558243238	17.737549287309	0.24809032549336	NaN	3.05291392606056	300	1
7	F8-T4	389305	389363	58	2.94077334335269	1.38157355527675	9.6611972177175	4.53080198928744	9.9833610936543	0.55012103529483	144	1.32293616920813	143	1
7	F8-T4	404826	404899	73	5.13142011424199	1.94010681673168	22.5666894510261	6.99558215473687	28.6230504490812	0.762213864191834	104	1.24606692313999	103	1
7	F8-T4	529849	529941	92	4.18824725328606	1.41321036262728	15.2700880295099	8.78316412232669	15.2700880295099	0.339757346396447	221	0.606130202141575	300	1
8	T4-T6	162729	162835	106	3.84225660785032	1.25910721482954	17.2592981100846	9.31209305786369	17.2592981100846	0.526682722434135	151	1.99785485568592	150	1
8	T4-T6	291979	292066	87	2.93961330414	1.31068604735757	10.2210660103575	5.0301745544617	10.2210660103575	0.328094653789658	118	0.308398360727309	117	1
8	T4-T6	401462	401512	50	15.134256949518	2.11591040616219	65.2244457542361	51.1596609230306	65.2244457542361	0.874219557451444	241	6.58680920837426	208	0
8	T4-T6	403845	403936	91	7.75969227689987	2.82329999157043	40.5100310199735	11.1513509851949	40.5100310199735	1.79046814502153	159	3.86533894930897	158	0
8	T4-T6	404089	404281	192	5.11998753022187	3.00833229868812	33.944566160729	4.35614125056769	40.5100310199735	1.27545488308188	158	1.9478364941708	173	1
8	T4-T6	404855	404930	75	4.49559018768646	2.94387423095538	20.2146975827065	5.08568252827472	40.5100310199735	1.06086815019158	99	2.53016433726215	98	1
8	T4-T6	528798	528840	42	2.5580632520619	1.32114141479325	8.54368652370505	3.74907340612797	8.54368652370505	0.67165871501704	176	1.33760848243475	175	0
8	T4-T6	577107	577174	67	3.80969780487336	1.35050518841898	13.1659851705954	7.95771793513357	13.1659851705954	0.248868060023304	235	0.526902628882667	300	1
9	T6-O2	162741	162817	76	3.69361663117044	1.29057339694581	13.6648702719337	8.19102434796746	13.6648702719337	0.263553663186766	148	2.13764425506588	147	1
9	T6-O2	401451	401513	62	13.2460469895302	3.09887640118539	64.2756120559023	26.1676417482494	64.2756120559023	1.08166338547607	105	5.54150809037243	204	0
9	T6-O2	401799	401877	78	6.55247383263331	3.67177706405778	27.5001457272878	6.40913184329589	64.2756120559023	0.911388801692328	171	2.87481059829576	199	1
9	T6-O2	402093	402160	67	7.06022737144357	3.84901980014946	25.9736256575415	6.09945301438841	64.2756120559023	1.25603487798721	164	3.78200489692009	163	1
9	T6-O2	403202	403256	54	5.06310484674905	6.4330019192463	20.5646673785892	1.34238387761404	53.1724081313884	0.476507416866596	153	2.78541776425699	216	0
9	T6-O2	403437	403946	509	7.98831788064872	5.93191142457423	43.0255179017321	2.82431939590109	69.3432161226104	1.69498841242563	187	2.86740539429965	186	0
9	T6-O2	404093	404362	269	10.4031780677694	6.06165340102432	69.3432161226104	4.07292336884275	69.3432161226104	2.6612346484984	61	3.91032540651187	85	0
9	T6-O2	404537	404602	65	5.95090558682108	6.62307099529081	28.0542871029329	1.38385435112795	69.3432161226104	1.67142149212575	174	2.72274238524491	173	0
9	T6-O2	404729	404787	58	6.35915280274864	6.26395004264279	25.6283000077469	1.72867900387772	69.3432161226104	1.72720858563911	159	1.70499100444708	158	0
9	T6-O2	405521	405565	44	5.84856528038844	4.18625927469051	20.356869801724	2.17412614015699	42.758217215257	1.35978214193139	132	1.40544744691354	163	0
9	T6-O2	406272	406319	47	3.29455446174284	4.15264276173069	10.5532242947242	0.96408057589521	47.5975653024924	0.542319859179037	151	1.67230553939909	150	0
9	T6-O2	406470	406649	179	8.48718357573988	3.39521467788848	47.5975653024924	6.54286508223539	47.5975653024924	2.49563378684963	90	2.0983874127415	89	0
11	F3-C3	246799	246850	51	2.31935840392021	1.27358224840046	7.50022240607496	3.31651322969091	7.84459895927298	0.115451233453826	143	1.09508799086023	193	0
13	P3-O1	403456	403548	92	6.972414335275	3.58534295264923	34.8022084584843	4.62975096163313	34.8022084584843	0.899342061204358	NaN	3.16488886253304	300	1
13	P3-O1	403699	403777	78	8.37262345987536	3.6131938762379	31.5883405760526	6.53770098290019	34.8022084584843	2.19309099759885	165	2.54312974165842	164	1
13	P3-O1	404702	404758	56	5.54482345380808	3.57447517543231	19.7612166516642	2.94749120505082	31.5883405760526	1.01995470335453	145	1.02827538314036	162	0
14	Fp2-F4	4075	4189	114	5.71056767096032	1.81599757573152	20.6272625856282	9.88844576347837	20.6272625856282	0.741962634416836	88	0.758327980220512	106	1
14	Fp2-F4	26109	26178	69	4.92574114201425	1.94886688343722	19.2170341538865	6.38820461795311	19.4069233834037	0.878407678328424	91	2.94264685729025	90	1
14	Fp2-F4	35120	35184	64	5.32049993435822	2.04695421377918	17.9203198638728	6.75598423333996	20.9097076546613	0.644461817061402	105	3.20893843295141	104	1
14	Fp2-F4	57014	57104	90	4.09747004038701	1.8545278548326	15.2469322363489	4.88162991914897	16.0300643939812	0.411342853395165	85	0.608133567840052	113	1
14	Fp2-F4	67193	67255	62	4.31420957474767	1.78267547890742	16.0562152687425	5.85676630483241	16.0562152687425	0.55027614659303	100	0.651634541529819	99	1
14	Fp2-F4	81620	81694	74	5.45762486596186	1.84208274827459	18.7724235098184	8.77786891671686	19.6008091133925	0.554641849590687	108	0.816240989938435	107	1
14	Fp2-F4	136019	136123	104	5.51816808700629	1.85961071253498	20.7474228351148	8.80533273763103	20.7474228351148	0.86269107193369	111	0.527024985857127	110	1
14	Fp2-F4	149619	149687	68	5.06229641073655	1.85043455760205	16.3565356737722	7.48423956289228	16.3565356737722	0.336967635171231	NaN	4.61640479239514	300	1
14	Fp2-F4	166470	166712	242	6.66610743162038	1.75690584963239	27.2629460173189	14.396192305914	27.2629460173189	0.714786597055386	87	0.805768805844443	103	1
14	Fp2-F4	189047	189115	68	5.07620848056487	1.68676335081822	17.919718186197	9.05671263547169	17.919718186197	0.287391242848925	209	0.70292063409416	300	1
14	Fp2-F4	217012	217089	77	4.52307231529485	1.79402986099383	17.7389347740887	6.35634890256581	17.7389347740887	0.478225071685662	89	0.651973293161271	109	1
14	Fp2-F4	233450	233556	106	4.07589990643834	1.68403211139263	16.5582104230771	5.85795840698751	16.5582104230771	0.435933442273993	99	0.489666381544748	108	1
14	Fp2-F4	243215	243412	197	4.22077610810293	1.62238844954112	16.2949301613426	6.76822736578128	16.2949301613426	0.50896727035744	91	0.636914525378712	108	1
14	Fp2-F4	291611	291689	78	5.23286800609889	1.90410080752814	18.5763825403917	7.5526556807361	20.015937918081	0.61016750930901	105	0.671875232256528	115	1
14	Fp2-F4	319199	319284	85	3.50641556021581	1.92122526374684	13.7315204998561	3.33096594045528	14.5265207722901	0.404385752150585	133	0.407070607340067	132	0
14	Fp2-F4	332247	332338	91	4.51859287168929	1.89355401503777	18.1591441109667	5.69444010472567	18.1591441109667	0.428336369741181	99	0.698489325977892	110	1
14	Fp2-F4	337677	337779	102	4.82993783396811	1.72873303005782	18.1000881098816	7.80597618779545	18.1000881098816	0.743630468257733	84	0.803006752245849	107	1
14	Fp2-F4	389116	389262	146	5.99412899480405	1.85329953307366	23.352647860462	10.4607045700257	23.352647860462	0.712392941619562	110	0.511244400880169	109	1
14	Fp2-F4	398453	398633	180	4.02931418071296	1.60851006940574	17.8252025982695	6.27501396421841	17.8252025982695	0.484612868400166	94	0.656434210968614	107	1
14	Fp2-F4	406649	406705	56	4.63615777514692	1.69705989012778	15.3592935565676	7.46314838130067	15.3592935565676	0.49680537083488	123	2.63334219035187	133	1
14	Fp2-F4	437097	437228	131	4.00018701184625	1.6617164681454	14.9255901044241	5.7949106359534	14.9255901044241	0.388734038264834	107	0.455570890912786	106	1
14	Fp2-F4	462159	462249	90	6.27169751484323	1.55070085585052	24.7765206421636	16.3573955197806	24.7765206421636	0.651715415548629	101	0.660879906567103	120	1
14	Fp2-F4	474076	474182	106	5.6749908711793	1.6768441911572	19.7153501958132	11.4536765097285	19.7915070500488	0.634545335496845	92	0.706494936676032	116	1
14	Fp2-F4	536863	536956	93	4.88250588689823	1.71277853236999	16.7739632237094	8.12611809001907	16.7739632237094	0.564164737274036	101	0.573967807279867	111	1
14	Fp2-F4	571164	571279	115	5.66070407209476	1.6298629994555	18.9081242434682	12.0625382052963	18.9081242434682	0.327181580624354	101	0.585530139377543	100	1
16	C4-P4	175701	175783	82	3.34519702120273	1.62115882674287	13.8874397951884	4.25786877173078	15.5822614176725	0.574636027816732	89	0.463990494382681	88	1
16	C4-P4	301204	301272	68	3.55441333795388	1.54346603005122	13.8664902613161	5.30324521368965	15.4191204857918	0.490065238644051	106	0.545509974107712	133	1
16	C4-P4	532116	532187	71	5.39771091127399	1.67138602577856	19.3844994973628	10.4295533157985	19.3844994973628	0.470685980983912	128	3.20712660970283	127	1
16	C4-P4	599954	600002	48	15.765229490845	1.76703428546643	70.5914588492377	79.5995553704931	70.5914588492377	2.36539138879991	NaN	8.78578012990289	300	0
17	P4-O2	401823	401877	54	6.55817598085059	2.51734898363392	23.8408204358012	8.5323120160204	26.7029892140326	1.07467119242209	168	3.03171962371372	198	1
17	P4-O2	402091	402158	67	6.57006090264865	2.70260162083158	25.4882625713356	6.89893497979378	26.7702757109204	1.34650174531104	166	3.53660745124918	165	1
17	P4-O2	403150	403271	121	6.13941664116117	5.51862134621919	34.3310977374148	2.46528118129107	40.3297507514036	1.87196497749614	154	2.12472292399594	153	0
17	P4-O2	403438	403538	100	8.42435419316338	5.46556892299221	34.0220648491612	4.33285136851175	62.9100357280085	0.685573813634058	158	4.57932585032816	194	1
17	P4-O2	403656	403734	78	7.803254129053	5.69366562416326	31.3572503938816	3.43074821757062	62.9100357280085	1.3971188704607	153	2.70494539865601	197	0
17	P4-O2	403946	404003	57	7.80112679717617	5.92764775147959	39.2191891929202	3.26545931021739	62.9100357280085	2.14243145394079	88	2.70287605007772	115	0
17	P4-O2	404159	404269	110	13.4683209032094	5.30883056692689	62.9100357280085	9.1365300209662	62.9100357280085	3.79992236482617	61	4.46088503052789	86	0
17	P4-O2	404537	404601	64	5.5354676406454	5.64854368969092	25.3618911351348	1.67236812947013	62.9100357280085	1.42700576517976	172	2.72703653536877	171	0
17	P4-O2	404730	404939	209	5.82244613920972	5.13726427489372	42.6319273548264	2.2039467349929	62.9100357280085	1.35945437593294	148	1.9736968210394	147	0
17	P4-O2	406546	406649	103	8.7169223524405	3.06831399187753	41.6138474853591	8.07098897164797	41.6138474853591	3.05168208901047	83	2.76094628578533	82	0
18	Fz-Cz	599932	600002	70	11.8196723697429	1.41296742001867	61.9990964968656	69.9755919171414	61.9990964968656	1.51244837617008	NaN	6.39491992898015	300	0
19	Cz-Pz	124394	124620	226	3.6533625862559	1.35658456004596	14.0893072566876	7.25256807802174	14.0893072566876	0.495227861998848	112	0.530728401414833	111	1
19	Cz-Pz	227946	228020	74	3.24313854283226	1.34692815417169	11.6087589109754	5.79751847748197	11.6087589109754	0.306233693299737	266	0.341775284462834	300	1
19	Cz-Pz	437099	437181	82	3.63766737863012	1.30935516603731	13.1978590832037	7.7184667720154	13.1978590832037	0.353997921893176	119	0.428798440746807	118	1
20	Fp1-Fz	272712	272797	85	3.37438140483868	1.29570535248122	11.9608485036607	6.78228183345393	11.9608485036607	0.279830965398518	92	0.637182744985033	108	1
21	Fp2-Fz	166478	166628	150	4.32975256735287	1.46953789187316	16.4783337206564	8.68089651925854	16.4783337206564	0.383447919468079	NaN	2.77898542184344	300	1
21	Fp2-Fz	227805	227899	94	4.04794614252414	1.47386232687395	13.9637359703414	7.54319986769064	13.9637359703414	0.352448011954898	NaN	2.55597053198602	300	1
21	Fp2-Fz	253414	253483	69	3.49012077979839	1.61648842787742	12.1035370237397	4.66160760007831	12.1035370237397	0.467690163699613	110	0.489623119899487	109	1
21	Fp2-Fz	272740	272822	82	4.00860529797378	1.61040063413856	14.3906294920956	6.19610439642399	14.3906294920956	0.48403507054808	83	0.651391545165489	112	1
21	Fp2-Fz	389133	389254	121	4.07450558883554	1.53794992579822	14.6464177198797	7.0188416532847	14.6464177198797	0.530369082228627	106	0.561892444693683	105	1
23	F3-Fz	81549	81617	68	3.24869781431391	1.38109114831744	11.0472638653688	5.5331691756875	11.3212017058948	0.223485910655592	87	0.383880451975876	107	1
24	F8-F4	3991	4183	192	4.77405052607753	1.62246947915549	19.8719972366966	8.65806716077628	19.8719972366966	0.719642771444573	88	0.804831852971747	106	1
24	F8-F4	9762	9873	111	4.57459925371594	1.79429312798027	16.6177752719581	6.50008928216277	16.6177752719581	0.36806506710505	101	0.44435865098694	110	1
24	F8-F4	18423	18501	78	3.95524970222459	1.93547105420793	13.3689457919258	4.17613425260928	17.9677820525308	0.481328632410556	75	0.513623628746735	102	1
24	F8-F4	26112	26257	145	7.12863473980525	1.91127050004633	26.4392552358685	13.9113222872952	26.4392552358685	0.453736597992749	253	0.553689605723711	300	1
24	F8-F4	35119	35198	79	5.18018487633453	1.9567182078582	18.1986769204	7.00864312675884	22.0316361922625	0.475580736729271	111	2.80437371325354	110	1
24	F8-F4	57032	57137	105	4.7271916749586	1.67634049098187	19.3702901424917	7.95210221471628	19.3702901424917	0.452215508769284	NaN	2.88424841876905	300	1
24	F8-F4	81535	81620	85	5.27174849500612	1.90115078818375	19.1660653328801	7.68911289717301	19.1660653328801	0.532757294238869	NaN	4.92232220262206	300	1
24	F8-F4	104472	104539	67	4.71546702827108	1.52582235146135	16.5291858936435	9.55083802923158	16.5291858936435	0.410107373606516	88	0.737791980646571	107	1
24	F8-F4	111446	111558	112	4.59306320847682	1.65814518221919	18.9234431788003	7.67290352059825	18.9234431788003	0.479146882106364	99	0.733740634670227	113	1
24	F8-F4	136122	136201	79	4.90475562871871	1.61102727081014	18.8469051537679	9.26891638562131	18.8469051537679	0.347727252809951	128	0.484838874069577	127	1
24	F8-F4	166469	166729	260	6.63823036587545	1.69483018354897	29.3028261478235	15.3409501803877	29.3028261478235	0.680305018180673	100	0.713315830044586	105	1
24	F8-F4	183032	183107	75	4.33494825068447	1.61244450003881	15.8470611287604	7.22766948156903	15.8470611287604	0.553338085448221	133	0.431995833904973	132	1
24	F8-F4	189035	189186	151	4.85024350862386	1.71072922464565	20.1643299928599	8.03830604248667	20.1643299928599	0.503086538243614	109	0.58234382020712	108	1
24	F8-F4	211661	211732	71	6.00881288631867	1.60464830386844	23.4798620468437	14.0222478077928	23.4798620468437	0.404188236241772	NaN	3.43172247681712	300	1
24	F8-F4	243211	243290	79	5.36110345122921	1.80667656650222	19.9366211741422	8.80536883693955	19.9366211741422	0.504265944511938	108	0.521475615789462	112	1
24	F8-F4	272784	272897	113	4.34821075569458	1.64059404248737	15.7332852882533	7.02455652668157	15.7332852882533	0.395691879859335	97	0.501324621473261	96	1
24	F8-F4	319401	319478	77	4.12518391411346	1.82090490590484	12.8246860246942	5.13230076540158	14.6734500220983	0.503344135012865	89	0.537746642488557	111	1
24	F8-F4	332304	332441	137	4.80850333029058	1.71485471298628	18.9691242105331	7.86258185174812	19.0760313863239	0.502531667705468	93	0.630917475644097	103	1
24	F8-F4	381899	381953	54	3.19662782803583	1.63578268320202	9.77920019866597	3.81885298030401	10.9239190519387	0.473151686875217	139	1.61139510297327	138	0
24	F8-F4	430856	430985	129	4.45232994513761	1.713721620694	15.7924787378886	6.74985012336653	16.2700266383068	0.433104583005229	105	3.22163666357763	104	1
24	F8-F4	437066	437203	137	4.02697653534834	1.50304023200262	14.392883632275	7.17822367636437	14.392883632275	0.370017368615068	87	0.512433965777558	110	1
24	F8-F4	462110	462231	121	5.45170860711651	1.59071362711921	20.1653736554412	11.7457638902959	20.1653736554412	0.504823093920451	96	0.537739280239933	105	1
24	F8-F4	571133	571281	148	5.85063014708175	1.53068767106093	21.3981841809789	14.6093912833265	21.3981841809789	0.533787483545722	103	0.676529589223165	102	1
25	F4-Fz	26105	26227	122	5.4957264701246	1.61303387942287	21.662636678507	11.6081561074297	21.662636678507	0.398100845490176	NaN	3.58122196400287	300	1
25	F4-Fz	35031	35102	71	4.63764480160319	1.5916858542078	17.1522261232838	8.48946363841034	18.0205363009045	0.588641153598198	87	0.648617679845013	104	1
25	F4-Fz	57015	57252	237	4.24212247326747	1.45233011215236	17.4660573033183	8.53170286082414	17.4660573033183	0.558550933936761	92	0.735335090430893	114	1
25	F4-Fz	136019	136102	83	4.18857341151108	1.65715309417002	15.588079440878	6.38861915047925	15.588079440878	0.566493235793099	80	0.648652150807704	113	1
25	F4-Fz	166428	166713	285	5.00757430335491	1.48191752801076	24.9994012648842	11.4184389592937	24.9994012648842	0.51627333200159	104	0.502177872661927	103	1
25	F4-Fz	189036	189127	91	5.03793319707575	1.76032089010828	19.2985262268972	8.19070195801884	19.6681443784477	0.311070282747915	NaN	3.94148063738859	300	1
25	F4-Fz	243223	243294	71	4.85366758906919	1.67130648577729	16.7809198125649	8.43388863917023	16.7809198125649	0.317632154334092	119	2.66005944402764	118	1
25	F4-Fz	272782	272898	116	4.56405861616875	1.68768437989854	16.2933395880129	7.31341073845708	16.2933395880129	0.314877252096863	110	0.334242701721914	109	1
25	F4-Fz	291613	291688	75	5.17575063300025	1.66562492446049	20.3149103323968	9.65588902558557	23.2987135371348	0.700646806842083	101	0.903380375798991	114	1
25	F4-Fz	319209	319280	71	3.55043361341817	1.56762711565347	11.9008194843503	5.1295262798046	11.9008194843503	0.226961955008031	134	2.03644002934019	133	1
25	F4-Fz	337673	337771	98	5.20321531149643	1.63313904278216	19.9326954101559	10.1507299110473	19.9326954101559	0.561635234951586	NaN	3.19833311562686	300	1
25	F4-Fz	389152	389244	92	3.9829749824914	1.57053568018079	13.8989607802471	6.43160763985867	13.8989607802471	0.555083629369615	116	0.359796198981093	115	1
25	F4-Fz	462128	462248	120	6.00470337157899	1.37593409361906	26.5177398248075	19.0453015287551	26.5177398248075	0.337348935763384	NaN	3.42963358010846	300	1
25	F4-Fz	474053	474170	117	4.71686135585792	1.61938603806896	16.8155929441918	8.48409340112191	20.8599677778205	0.571200040993559	82	0.878429739271354	110	1
25	F4-Fz	536870	536959	89	5.11308653523123	1.67638898935356	18.0646336994025	9.30286430922097	18.0646336994025	0.503638476015774	103	0.672159087525432	102	1
25	F4-Fz	571164	571292	128	5.04090894414849	1.50385624439177	18.3975793602125	11.235827382434	18.3975793602125	0.434516990091206	104	0.503381141940252	104	1
25	F4-Fz	583676	583752	76	4.11019354625151	1.56998982418961	13.9704612243794	6.85379122056911	14.1607630613137	0.260498979887438	252	0.27572507014513	300	1
27	C3-Cz	233669	233726	57	2.21568098363363	1.41616711614182	8.65279825842274	2.44785365099176	9.34937975586718	0.40270218077594	178	1.17102701369709	182	0
29	C4-Cz	50906	50975	69	3.19629992623338	1.49461821132483	11.5108568160509	4.57335074634443	12.2745165220111	0.439472930857518	125	1.75593710232567	124	1
29	C4-Cz	124467	124646	179	4.30611964609428	1.49188167553938	15.9666105998579	8.33112068813713	15.9666105998579	0.383040317983637	109	0.410182268686793	108	1
29	C4-Cz	153462	153520	58	3.40922228465984	1.31744321852714	12.3896503253046	6.69648383110569	12.3896503253046	0.446006267661967	88	0.70998271679972	116	1
29	C4-Cz	272820	272901	81	3.85565574447218	1.49197620350575	14.1766112896583	6.67840432313171	14.9000122549533	0.471970171492335	98	0.525250020029533	106	1
32	T6-P4	364845	364912	67	3.35807074132669	1.32738688862183	10.9958772080032	6.40006867958833	10.9958772080032	0.42792007289153	131	1.69143019769462	130	1
32	T6-P4	401465	401513	48	14.4460103776829	1.92189577050608	60.1739892059445	56.4984044125467	60.1739892059445	1.22239052535858	128	6.61997739081606	201	0
32	T6-P4	403868	403934	66	8.28920712528558	2.6535849045855	37.8956700333682	9.99397355154357	37.8956700333682	1.89630354073962	156	4.34848703974962	155	0
32	T6-P4	404296	404340	44	3.77692947078374	3.01340933502355	13.2574644321116	2.03388119489932	37.8956700333682	0.605633111458825	166	2.02362333285556	193	0
32	T6-P4	432982	433040	58	4.88152605046587	1.33588407488426	16.1114121416237	13.3528409890118	16.1114121416237	0.373361657363232	132	0.390715004023876	131	1
32	T6-P4	532118	532187	69	4.87949276676433	1.66840037942662	17.4978897890287	8.55359724547881	17.4978897890287	0.51117908382278	114	0.685674671850143	128	1
33	P4-Pz	532122	532188	66	4.27634068722782	1.46261509944195	14.9368814774392	8.54839318356444	14.9368814774392	0.346010782260078	123	0.440503290731334	128	1
34	Pz-O1	400564	400619	55	2.70771746039726	1.71480198840337	8.81371866340612	2.49332409553241	19.06056289559	0.671310105097191	177	1.4021558697929	176	0
34	Pz-O1	403143	403232	89	6.41140634239769	3.73354862961402	30.7169610557533	4.46548192859603	38.0566849844182	1.43792186386473	145	1.05899323400978	144	1
34	Pz-O1	403416	403511	95	6.46886609734422	3.81209086136442	36.1237131595396	4.18022903904208	38.0566849844182	1.41251148581558	343	2.46958461839707	202	0
34	Pz-O1	403691	403802	111	8.10953085634741	3.72789258953232	35.8588679740949	6.4737786276771	38.0566849844182	1.93583359583643	169	3.51981070908783	168	1
34	Pz-O1	404699	404761	62	6.02886960247128	3.74868547191064	25.3904984469457	3.39288786414201	35.8588679740949	1.51701154850205	139	1.5740855601783	164	0
34	Pz-O1	405135	405189	54	4.4175053660285	3.72475925735297	17.7712679898532	1.71393390316944	31.4090889067419	0.364209315870822	128	2.00758536874604	207	0
34	Pz-O1	405917	405989	72	6.02656936828712	3.96970301642815	26.4718630187716	2.53808641259487	34.3024530721003	1.62854100618994	127	2.04166807514358	126	0
34	Pz-O1	406100	406247	147	5.65270995027446	3.9315983239873	30.3092431654322	2.19991048012674	34.3024530721003	1.59134302507079	144	2.34604678601933	143	0
35	Pz-O2	400571	400619	48	2.50132441512786	1.50276771571193	7.88687545381678	2.77048837088841	14.0497787826192	0.476535700202716	177	1.38732462049665	176	0
35	Pz-O2	401813	401878	65	7.30865076642651	2.49715766373116	29.5155081495079	10.5343671861547	30.695378160534	1.00125244518739	167	3.38898555669105	196	1
35	Pz-O2	402093	402166	73	6.04651833378294	2.81820699620484	24.2649867591102	5.7840429732803	30.695378160534	1.00997210710866	163	3.26271325126555	162	1
35	Pz-O2	403153	403256	103	6.85700702202085	5.87985182543818	37.5861057268586	2.73378342675468	43.6805419316848	2.06542247995329	154	2.34561765293525	153	0
35	Pz-O2	403438	403540	102	8.98187628265077	5.83412676101711	35.6520233243318	4.29762198738816	70.0567311942606	0.940203718383719	158	4.93170526781556	194	1
35	Pz-O2	403656	403829	173	6.92759567901941	6.06200343434211	30.7829188818364	2.37222770142766	70.0567311942606	1.69553528101386	238	2.56590482692252	238	0
35	Pz-O2	404083	404279	196	11.5468609749188	5.51847137956517	70.0567311942606	5.69591186395867	70.0567311942606	2.79107764875761	61	3.51384592246879	86	0
35	Pz-O2	404537	404625	88	6.30933961543138	5.95282273585868	26.3071778064235	1.78488777724244	70.0567311942606	1.37910168130238	180	3.09347797804824	179	0
35	Pz-O2	406468	406649	181	8.65880697934704	3.15833355994183	50.7470926408132	7.5162311364694	50.7470926408132	2.57041327636445	89	2.09927513893428	88	0
36	O1-O2	401813	401878	65	5.96021749509024	2.65468294907615	25.5992635885202	5.70059502274974	32.5241473948805	0.686734715760818	167	2.67773079220577	197	1
36	O1-O2	402099	402153	54	5.99104893851884	2.82885947995358	20.0252338213854	5.08161922451613	32.5241473948805	1.1602466550191	158	3.21565226494878	165	1
36	O1-O2	403391	403799	408	8.4668838002024	5.20152215902633	45.3773097903796	3.17215676861561	70.0106093566586	1.83566687955198	183	3.13389731386394	182	0
36	O1-O2	403918	404023	105	6.16852458010613	6.27551561575474	33.5526448530663	1.38868256258966	70.0106093566586	1.36059381494252	148	2.62774196451937	207	0
36	O1-O2	404159	404209	50	12.1030229439015	6.1620325272408	52.5347426237996	5.15321770095232	70.0106093566586	2.28746523217897	61	5.78310398741202	93	0
36	O1-O2	404367	404428	61	6.1703043821203	6.33971453173396	28.0905415286876	1.41672109759182	70.0106093566586	1.53976348339207	115	1.70805536467586	152	0
36	O1-O2	404574	404757	183	4.75272554641636	5.68261278123346	22.3863118607354	0.898871873932056	70.0106093566586	0.962831349961087	179	1.7972504658209	178	0
36	O1-O2	405165	405245	80	6.9541998302042	4.95670181851847	30.2715734056722	2.30857717450313	70.0106093566586	2.44718302157399	101	2.63830816966956	132	0
36	O1-O2	405390	405592	202	4.55565725053499	4.13550042311207	21.6484041325985	1.73192557836271	32.7588332730177	0.988267782413012	164	1.91866321850281	163	0
36	O1-O2	406559	406650	91	13.0957579958268	3.26487692907467	56.0605628056698	16.6663376459517	56.0605628056698	4.15607310477524	87	3.12760509404833	86	0
38	C3-Fz	81543	81615	72	2.78164065047738	1.27684941109675	10.3951690586446	4.74594485682144	12.4409250224039	0.240238218082741	106	0.247389731727795	105	1
38	C3-Fz	599893	600002	109	15.412662532622	1.42740782625263	100.810547263095	116.589433387119	100.810547263095	1.37920275149308	NaN	5.15614112278135	300	0
39	F8-C4	18533	18602	69	3.55843436922517	1.65158237332431	11.7679412468377	4.64213153563353	13.8412074614099	0.294455465775969	112	1.93129418922587	111	1
39	F8-C4	111453	111572	119	6.66541975263798	1.66721816720826	24.9429043399173	15.9834357740985	24.9429043399173	0.477244313279941	110	4.29660824925635	109	1
39	F8-C4	272815	272926	111	3.99078491421344	1.67292686198842	15.188819162193	5.69066125595983	15.188819162193	0.357625608784954	90	0.6170559587366	109	1
39	F8-C4	323608	323728	120	3.77999868402842	1.43610420517091	12.7795562578692	6.92805600053207	12.7795562578692	0.344817609578629	NaN	2.44359228123112	300	1
39	F8-C4	421202	421276	74	4.4202846403438	1.55104040940741	15.704153464653	8.12183658733463	15.704153464653	0.465054093196563	99	0.630495638162185	103	1
39	F8-C4	431007	431076	69	4.04996430806819	1.71540638385649	15.733947038655	5.57401775502981	16.5902446614305	0.400367600999166	123	0.381086560071084	122	1
39	F8-C4	462197	462288	91	4.83086400231539	1.64852863644058	20.3169058606317	8.58729992681102	20.3169058606317	0.404046262196886	113	0.609569948649	112	1
39	F8-C4	529850	529974	124	5.30912730471209	1.57980502967993	19.1526682636024	11.2937792324386	19.1526682636024	0.58564437554396	108	0.663046632574906	107	1
39	F8-C4	583687	583751	64	3.84925117120086	1.49198285266847	14.2838933024491	6.65617662289371	14.2838933024491	0.403495359809797	104	0.696484115096096	126	1
40	C4-Fz	26080	26185	105	4.13049685975239	1.49254502014022	16.3923890153291	7.65860574351876	16.3923890153291	0.53670537840265	112	2.39326603732654	111	1
40	C4-Fz	57134	57263	129	3.95582554021351	1.3679258149817	13.5297657577756	8.3627510643885	13.5297657577756	0.360478249447091	93	0.401068104718379	110	1
40	C4-Fz	111491	111598	107	3.5423111614403	1.34549116644379	13.0363722990525	6.93125239293779	13.0363722990525	0.490742074284037	76	0.465677413630888	104	1
40	C4-Fz	124466	124541	75	4.33157068698671	1.71050839899588	16.9655474782804	6.41269212870258	16.9655474782804	0.533381956639778	112	0.662037924734124	111	1
40	C4-Fz	166466	166560	94	3.81152031001428	1.57381361490866	15.459064070927	5.86529527422782	15.6519024225311	0.51365281913522	88	0.68811399966449	105	1
40	C4-Fz	272848	272925	77	3.64132839258231	1.47713229389849	13.4408432157582	6.07688347642636	13.4408432157582	0.264042886924468	105	0.402086341407655	104	1
40	C4-Fz	291585	291664	79	2.94293377378084	1.4572887160315	10.1109052490807	4.07821177193365	11.286545823758	0.313088864426042	NaN	1.58693651000937	300	1
40	C4-Fz	337679	337736	57	3.7569332422538	1.53964545845186	13.6163016730769	5.95422861541373	13.6163016730769	0.540709620594336	119	1.89601580994499	118	1
40	C4-Fz	421207	421277	70	3.58326533761121	1.33329636221929	11.8553687904149	7.22278269077635	11.8553687904149	0.459395173433954	108	0.611475552733577	118	1
40	C4-Fz	447597	447639	42	3.04929832263728	1.3149754013536	10.8098812874761	5.37730378570867	10.9932823791696	0.627224703609016	95	0.698469688367072	135	1
40	C4-Fz	529868	529961	93	4.44934997674074	1.40300876954601	16.3828795646493	10.0570906434787	16.3828795646493	0.364199110507495	225	0.506024863689215	300	1
41	T5-C3	130278	130323	45	2.1144709018866	1.20736213987884	6.36674317385984	3.06710270873524	8.93027589916905	0.111536959935587	142	1.19754191641844	195	0
41	T5-C3	403445	403490	45	3.76795864431827	1.88945426758276	14.9541382971497	3.97685251947891	18.7024023113161	0.247419813161685	118	1.58188503665496	200	0
41	T5-C3	407055	407105	50	2.79554644423885	1.57726252678154	9.47034205924124	3.1414160127549	13.582545426473	0.722223632960312	191	1.38097894930717	190	0
42	C3-Pz	124489	124572	83	2.66176154527753	1.36326405780261	9.83440212356058	3.81222322990371	10.8768770653647	0.259818271677196	112	0.313489694025402	113	0
43	T6-C4	50906	50999	93	3.88046620046746	1.50130148231486	18.187026672302	6.68085403397516	18.187026672302	0.654722687864469	123	0.80959676984743	122	1
43	T6-C4	69810	69879	69	3.03301494638864	1.49532434924888	9.89972545942515	4.11413265124676	10.8622144302652	1.25089440278511	88	1.54672341278434	87	1
43	T6-C4	401463	401512	49	14.7789492826992	2.01737952624687	63.9999212109291	53.6675660578967	63.9999212109291	1.14991326640099	125	6.63174770373568	207	0
43	T6-C4	404165	404208	43	3.6551185497703	3.25639192779187	12.0160173657641	1.25988120098701	42.2207951409116	0.673572869755578	204	1.80496089018381	210	0
44	C4-Pz	155535	155604	69	3.45310082873797	1.40870486395038	12.7897844356036	6.00867191231008	12.7897844356036	0.414927168213933	90	0.54294170074049	118	1
47	T4-P4	211839	211920	81	2.72427461805455	1.36603033489851	9.86545932091187	3.97723342775705	10.0040093821994	0.216341366442933	116	1.49191065289806	121	0
47	T4-P4	406570	406622	52	4.58976452450561	1.68139644483923	16.7608520896714	7.45144602735327	16.7608520896714	0.980571261390281	96	1.04970031139862	95	0
47	T4-P4	483191	483245	54	2.63810617110025	1.56685037763896	8.63209350123679	2.83484609891822	9.18121446204495	0.513210299285899	135	0.514744324988329	146	0
48	P4-Cz	83632	83685	53	2.8244711429049	1.31990644927272	9.44621452343235	4.57918281436917	9.794765298709	0.44427923208751	141	1.56528920579139	140	1
48	P4-Cz	124537	124634	97	4.70947556440901	1.61857846444541	16.2261281867963	8.46598666949762	16.2261281867963	0.472239909140139	111	0.55961751755574	110	1
48	P4-Cz	432969	433035	66	4.70692935719253	1.36701891169186	19.4225069858997	11.8556758116485	19.4225069858997	0.257720142578014	NaN	2.48046367691782	300	1
48	P4-Cz	437085	437174	89	3.98834640436344	1.34990362396708	14.5327649160801	8.72931602831821	14.5327649160801	0.308354696658956	120	0.500553072187254	122	1
48	P4-Cz	532115	532188	73	5.35567394805987	1.54115154856999	18.8687529040266	12.0764020948178	18.8687529040266	0.353808372783466	127	3.08710653774416	126	1
49	T3-F3	401413	401475	62	3.94700628073811	2.1162157999809	15.5832159420258	3.47869000846644	17.4365995842684	0.964780530034113	156	1.60624316413311	155	0
50	F3-Cz	136285	136332	47	2.41377930914386	1.34635338096126	7.79466848769021	3.2142302930545	8.83606929984304	0.456000479872276	181	1.20769971822793	180	0
51	T4-F4	4075	4188	113	5.44858715068784	1.88622103623178	19.8521046499134	8.34416024041021	21.7103656795774	0.463349051623941	86	0.631336895182044	104	1
51	T4-F4	9761	9872	111	5.98031368918896	1.58282617271799	22.5292574196484	14.2751764144467	22.5292574196484	0.393085843976868	112	0.379530888386543	111	1
51	T4-F4	26111	26256	145	6.85755784210546	1.82407888948784	25.0492475187372	14.1335651316338	25.0492475187372	0.439022455146637	NaN	4.66882685090448	300	1
51	T4-F4	35022	35206	184	5.50410755160429	1.52119660627036	22.6736172394593	13.0919135049124	22.6736172394593	0.558652353121385	97	0.678698642129699	108	1
51	T4-F4	57017	57174	157	4.56985880234769	1.77921337675948	20.277966407746	6.59704570692466	22.7629269526393	0.73272433178449	118	0.779156922464948	117	1
51	T4-F4	81531	81616	85	5.86005890284359	1.84300267882282	21.6905867300905	10.1100203515165	21.6905867300905	0.52079218239121	NaN	4.74538839513426	300	0
51	T4-F4	92754	92836	82	4.59436525241264	1.5921630607542	17.2892408872735	8.32675813094314	17.2892408872735	0.712018768302617	93	0.720266726351261	92	1
51	T4-F4	104456	104540	84	4.26589883593921	1.53595371806523	16.6459954871074	7.71373731252343	16.6459954871074	0.336371496896001	91	0.648590841717644	108	1
51	T4-F4	166410	166730	320	6.28146397684827	1.46044906182893	29.2272923377381	18.4990283899549	29.2272923377381	0.423742523033817	NaN	3.71416460943669	300	0
51	T4-F4	189014	189191	177	5.74305368101444	1.46949564903251	25.021620044345	15.273871845252	25.021620044345	0.442058226188384	102	0.625015073819878	108	1
51	T4-F4	211664	211729	65	4.78828208830414	1.5977474815521	17.5746191947443	8.98138207785239	17.5746191947443	0.448960344148232	110	0.559173486985268	116	1
51	T4-F4	243195	243291	96	5.97045087975635	1.78428136442567	22.5947721455896	11.1966365278483	22.5947721455896	0.483741918482289	113	3.24102419360471	112	1
51	T4-F4	248603	248699	96	4.82084283084007	1.77072970364707	18.3447862953809	7.41210222935166	18.3447862953809	0.624031941841037	112	0.531097201089764	111	1
51	T4-F4	298174	298247	73	5.62943969336919	1.55236513096055	20.1454511883037	13.1505096354502	20.1454511883037	0.500420549369969	104	0.504965171668143	103	1
51	T4-F4	319208	319281	73	4.64749280658912	1.61860666649804	15.9539849016533	8.24431928877345	15.9539849016533	0.381658396356208	131	0.433584649126732	133	1
51	T4-F4	332304	332430	126	5.19600954021207	1.66537954019933	17.5739409995567	9.73449507687191	17.5739409995567	0.530563997736608	98	0.666610274771663	104	1
51	T4-F4	421168	421244	76	5.07107175044748	1.54652471721055	18.4699960877465	10.7519139478095	18.4699960877465	0.552891017735395	106	0.679187657054867	105	1
51	T4-F4	462127	462235	108	5.29277598275446	1.47777116492859	25.5471688477355	12.8278138604025	25.5471688477355	0.303651145768567	NaN	3.2759196054677	300	1
51	T4-F4	474048	474144	96	4.17356097161044	1.86893873745538	16.5382198942515	4.98681656614009	21.5311818004959	0.669955507698421	97	0.755821612375115	115	1
51	T4-F4	485660	485758	98	4.37938223937441	1.57769860291169	20.1827194970245	7.70508836233465	20.1827194970245	0.586597026530809	96	0.665723120350552	107	1
51	T4-F4	536803	536971	168	5.24447010298624	1.82721341508771	21.0649803034991	8.23805482275159	21.0649803034991	0.438646104967774	113	0.585734733534477	112	1
51	T4-F4	571159	571278	119	6.3352229318609	1.44634939972635	21.4049436572352	19.1856874248229	21.4049436572352	0.497614566370856	104	0.46655191059621	103	1
51	T4-F4	599949	600002	53	15.7751462452484	1.61474732880673	74.531933293502	95.4415840314583	74.531933293502	2.97918116403009	NaN	13.2324811672247	300	0
52	F4-Cz	4078	4231	153	4.48289886765537	1.91091371521096	16.343815014088	5.50345890556835	20.8108130480964	0.339717975794333	83	0.576093424072448	103	1
52	F4-Cz	9760	9868	108	5.16347437694852	1.49040196507759	19.4681719207551	12.0026522471419	19.4681719207551	0.379484138416957	100	0.543273951465469	108	1
52	F4-Cz	26113	26252	139	6.19241884308699	1.6737472942933	21.8378513959316	13.6880275636617	21.8378513959316	0.597921734967888	109	4.04544929045221	108	1
52	F4-Cz	35020	35112	92	5.30768829424382	1.88487503347868	21.611734729806	7.92949804196318	22.0604562078344	0.57798423352355	105	0.664929303279171	104	1
52	F4-Cz	48516	48587	71	3.48591389681676	1.54302615288246	11.9843696322238	5.10371879217791	12.8085453484261	0.645575785172871	89	1.92708965876372	88	1
52	F4-Cz	57013	57229	216	5.46831090702975	1.49781174222548	22.8069315792111	13.328827146716	22.8069315792111	0.543515525191526	NaN	3.32156304370761	300	1
52	F4-Cz	67185	67270	85	4.28124742118061	1.63804261462707	16.5103575423651	6.83109401505894	16.5103575423651	0.638046068363307	79	0.779626845792315	99	1
52	F4-Cz	92752	92816	64	4.13836811739873	1.56813840615393	14.7422988049668	6.96449219631188	14.7422988049668	0.415280590738993	95	0.486270390725649	94	1
52	F4-Cz	104464	104526	62	4.30700851251969	1.4985552685611	15.6568939007936	8.26049229509869	15.6568939007936	0.566871180089935	111	0.757622693133684	110	1
52	F4-Cz	166411	166687	276	5.98711759322885	1.55828801688556	24.8466086855467	14.7618271063435	24.8466086855467	0.789748836244492	83	0.828737848348868	106	0
52	F4-Cz	188984	189209	225	5.70783110855375	1.49252552957795	22.6706005908339	14.6250948488202	22.6706005908339	0.356655943032266	209	0.531972197140115	300	1
52	F4-Cz	202522	202643	121	4.35269111792889	1.60973739553119	16.0123362501995	7.31148565126466	16.0123362501995	0.472749736381005	82	0.560370970800266	106	1
52	F4-Cz	217013	217092	79	4.47769798471136	1.5908044042431	15.1613629398292	7.92275134460029	15.1613629398292	0.543270800572904	110	0.568503521770893	109	1
52	F4-Cz	243213	243304	91	5.82065415258233	1.60355243888552	22.6201419739996	13.1758079996197	22.6201419739996	0.345851478292463	NaN	3.37916318839142	300	1
52	F4-Cz	272775	272903	128	5.36781650935811	1.61730538315206	19.8311924568249	11.0156786777209	19.8311924568249	0.5116412471176	111	0.557614089819263	112	0
52	F4-Cz	301349	301441	92	3.86888276500761	1.80929022823328	13.1123621835966	4.57251000678967	14.8539530974857	0.410184593618463	85	0.527395850463857	107	1
52	F4-Cz	319209	319281	72	4.69139136867705	1.63256882036035	16.0334497314639	8.25772342970714	16.0334497314639	0.344724605622362	128	0.444872535528356	127	1
52	F4-Cz	332308	332384	76	3.86425087522967	1.7150978357807	12.9909760645581	5.07636487117118	14.6086097183493	0.462863557086432	92	0.488103852247731	91	1
52	F4-Cz	337716	337816	100	5.39455922233183	1.84682010532167	20.5899712327522	8.5322337076632	20.5899712327522	0.52778937059571	113	0.429245115263081	112	1
52	F4-Cz	406584	406662	78	4.34200484154952	1.56118966136407	16.5052274804334	7.73515950396298	16.5052274804334	0.583676626529074	121	0.605584217883451	120	0
52	F4-Cz	437150	437226	76	3.83327863283317	1.58190668967417	11.8383353570037	5.87190541632858	12.5900243955208	0.367467203757187	93	0.469091930766246	111	1
52	F4-Cz	462130	462260	130	6.01376837623415	1.47099815233558	27.7965512806038	16.7135667246451	27.7965512806038	0.869460049980222	94	0.474345599857691	93	1
52	F4-Cz	474078	474173	95	4.68625972966376	2.09168434807624	15.2353375258631	5.01949951942119	22.70337095698	0.405951410349215	82	0.587090223698726	113	1
52	F4-Cz	485659	485756	97	5.02251582261245	1.68355132095973	18.6074290462712	8.89999796802285	18.6074290462712	0.440886554371838	NaN	3.46427845916802	300	1
52	F4-Cz	490845	490976	131	3.86266708743683	1.59216530162634	14.5364343412051	5.88570171160132	14.5364343412051	0.269772796084255	NaN	2.31772068199077	300	0
52	F4-Cz	533998	534102	104	3.77780018568667	1.63636618049185	15.2292509896006	5.32987442494345	15.2292509896006	0.268365665165929	87	0.474707173065832	105	1
52	F4-Cz	536854	536970	116	5.16124560941283	1.74478983619959	19.8835914307134	8.75029727154565	19.8835914307134	0.581498373705523	101	0.595548339720383	100	1
52	F4-Cz	546364	546447	83	3.8249374387324	1.61276519178943	14.4209820117575	5.62479099038481	14.5027022006208	0.446569879614521	105	0.454277616989616	104	1
52	F4-Cz	571161	571321	160	6.59965354484453	1.70774500406855	25.2320688517182	14.9346905331662	25.2320688517182	0.270757622283839	NaN	4.64164147508792	300	1
52	F4-Cz	583611	583796	185	4.20235764923136	1.59402364289181	15.5674945271506	6.95018724071867	16.1199225321752	0.721413022997704	102	0.392133310161383	101	1
52	F4-Cz	598703	598776	73	3.77293492512258	1.49837304466689	12.1263708990489	6.34043020284121	12.1263708990489	0.344289135214274	92	0.373490582407074	91	1
