nChannel	strChannelName	indStart	indStop	indDuration	Event_RMS	Window_RMS	EventPeak2Peak	SNR	Amplpp	PowerTrough	Ftrough	PowmaxFR	fmax_FR	EvPassRejection
2	Fp1-F7	109529	109580	51	6.79396876711405	3.53502336841997	21.5644743501063	3.69370760782572	33.3976807929172	1.26217834717077	159	3.24415996281837	158	0
3	F7-T3	109648	109692	44	7.42162136953033	3.32120275021391	27.7719581811102	4.99352019263831	30.7642655581324	2.39367125393733	147	2.92635806264215	173	1
3	F7-T3	557515	557575	60	5.6690788431475	2.34122470951475	21.0725433051958	5.86325518014922	21.0725433051958	0.970773979169098	117	0.857746332936427	116	0
4	T3-T5	443786	443835	49	3.08288911655159	1.96360299763251	9.12215918913579	2.46495182757323	13.8826821464516	0.646067869059994	182	1.49940174979497	181	0
4	T3-T5	557517	557577	60	4.92682746153563	2.21002312014112	17.5726050423756	4.96982472955264	23.5209016497068	0.71211653436799	121	0.764782981103399	123	0
8	T4-T6	557455	557698	243	25.3638808614893	2.71147391300884	207.53385022133	87.5025175185159	207.53385022133	3.86636217639808	106	10.0315453754071	105	0
9	T6-O2	79736	79795	59	4.37660028921178	2.21448237048351	14.6044599203443	3.90597370247124	16.3568546829543	0.369864933869742	136	0.484345483961891	137	0
9	T6-O2	557468	557621	153	29.6318186599448	3.00247578951391	203.308814026616	97.3996925839791	203.308814026616	5.13566484736398	109	10.1115742856271	108	0
14	Fp2-F4	230295	230344	49	4.62538200724353	2.43353989452493	16.8998426816093	3.61258665010752	19.8546794421676	0.988453598732263	146	0.969591797235064	145	0
14	Fp2-F4	452419	452468	49	4.21597928575747	2.29445839548863	14.0011329652109	3.37626527762446	14.0011329652109	0.245674384568938	137	2.47935293972166	211	0
15	F4-C4	245521	245574	53	4.61064652570828	2.09008763369444	19.1822251188644	4.86625278638945	19.1822251188644	0.731812720978491	149	2.48763881352641	155	1
15	F4-C4	253688	253757	69	4.56902204358652	1.87467407291843	15.7070300827452	5.94011647199777	15.7070300827452	0.609043935399532	135	0.730435660177557	140	1
15	F4-C4	468293	468338	45	3.82332148329472	1.90275497771274	13.2396057527657	4.03753128727255	14.0299002325909	0.112103246711977	125	1.81289665278526	193	1
15	F4-C4	538206	538284	78	3.68225642871726	1.85669790271375	11.5960760746611	3.93319577918577	12.862899239808	0.456471811065197	132	0.538747358630463	145	0
15	F4-C4	577383	577438	55	4.21480218284171	1.99724613903324	17.4432485211137	4.45339494727796	17.4432485211137	0.786903426163535	167	2.10428832408253	166	1
17	P4-O2	14882	14970	88	5.82968796475621	1.93002623152901	24.7786317815778	9.12355713340238	24.7786317815778	1.97608587144293	91	0.842190910021847	90	1
17	P4-O2	122971	123025	54	5.46595860445644	2.20566982686152	20.0557346438002	6.14117781402471	20.0557346438002	0.857312413578474	138	0.976884702540792	152	1
17	P4-O2	218467	218534	67	5.35437834680865	2.03010148701863	17.6280077836039	6.95636902755316	17.6280077836039	0.673140052548389	103	0.6863356978023	117	1
17	P4-O2	237724	237807	83	6.054339674517	2.15480374352065	22.824531254348	7.89438174319516	22.824531254348	0.685188617607567	123	0.551492617047911	122	1
17	P4-O2	246449	246509	60	5.46448053673043	2.38919811238193	20.1726275920929	5.23110504325133	22.8216206552357	0.890867031411796	138	2.77280448035306	137	1
17	P4-O2	251280	251351	71	4.30044957581412	2.43581707972484	14.6145479325999	3.11701130072464	21.8894892593567	1.52368273417154	83	2.07095782868006	82	0
17	P4-O2	253675	253768	93	5.55334587376734	2.10874650318303	20.5924848009085	6.93522723220113	20.5924848009085	2.55566232257947	83	0.779866684976342	82	1
17	P4-O2	496821	496909	88	5.0157165662796	2.18363753249257	18.9972263331148	5.2760010472695	18.9972263331148	0.72626677984416	83	3.17754109568777	82	1
17	P4-O2	538181	538240	59	4.51548413279637	2.22359310969145	16.9287609864815	4.12380386977074	19.3812925857914	1.09110035635933	157	1.74705268738739	156	1
17	P4-O2	540542	540598	56	5.6928704262885	2.15333762731383	18.7477399600821	6.98937495660407	18.7477399600821	0.722741364996389	129	0.750593454640934	138	1
24	F8-F4	248367	248414	47	4.36320547970893	2.17887563016988	15.3424481854574	4.01001917242143	15.3424481854574	1.18235258630392	159	1.30597652491626	158	1
27	C3-Cz	238227	238284	57	4.52016507778961	2.16061780518058	17.1009073157983	4.37675956916015	17.1009073157983	1.05827595182679	151	2.33231396166144	150	1
28	T4-C4	42193	42264	71	6.04121093065216	2.39912112579405	19.3000756518728	6.3407940730182	19.3000756518728	0.462263584245928	143	3.47526838842141	142	1
28	T4-C4	257246	257308	62	6.07834509182784	2.30500727770631	22.1778880441035	6.95386258323976	22.1778880441035	0.799056883269635	146	0.722078538217504	145	1
29	C4-Cz	250484	250548	64	4.16754486958537	1.81546248777311	15.0325041895004	5.26970142499475	15.0325041895004	0.7349598460024	149	2.00154931717843	148	1
32	T6-P4	16366	16439	73	5.56619000353504	2.0489988169115	20.3500021111219	7.37959688317484	20.3500021111219	0.60459172219416	154	3.03242456939658	153	1
32	T6-P4	54103	54195	92	5.40427882186052	2.04103862501731	19.8484384888672	7.01088830037079	19.8484384888672	0.766043592343844	141	2.65137976033867	140	1
32	T6-P4	61283	61356	73	4.68429607187053	2.04278549352401	16.6157508931457	5.25827316318109	16.6157508931457	1.86799186099509	90	2.36979408051473	89	1
32	T6-P4	83864	83933	69	5.15729059252188	2.02675882118901	17.137232095417	6.47498940136859	18.6489870635627	0.652120031843946	124	0.739612166720865	123	1
32	T6-P4	87119	87179	60	4.74188692981196	1.93702111048983	16.4521600141044	5.99285376415929	16.4521600141044	0.673989050765004	138	2.3857430205001	137	1
32	T6-P4	116530	116587	57	4.90055800107957	2.05024745798578	16.0359673250315	5.71318784030424	16.7107448014276	0.669316456776546	114	0.822432794687596	137	1
32	T6-P4	122977	123065	88	6.39626819951852	2.12287442834208	23.9729390388583	9.07830396739336	23.9729390388583	0.726875910752155	146	3.12105319950467	145	1
32	T6-P4	246462	246538	76	6.36960138562163	2.51030257064616	23.224021555052	6.43831717471739	23.224021555052	0.642889781907701	143	3.77549473941296	142	1
32	T6-P4	248349	248402	53	5.14877508494752	2.13265429656296	18.7221138323519	5.82863577730325	21.4409862024193	2.11913830301979	83	1.0192145171764	82	1
32	T6-P4	250482	250553	71	5.03136081888919	2.04312812842419	17.4712463214065	6.06428664230239	17.4712463214065	0.655922410345111	150	2.39885807061326	149	1
32	T6-P4	252194	252246	52	4.52799632628488	2.00636056038913	13.6864203354544	5.09324030620836	14.0346525984468	0.365328320378689	144	2.42192200808344	143	1
32	T6-P4	253672	253754	82	4.72035794730473	1.9412049979569	16.3680917028325	5.91298889985003	16.3680917028325	1.98521463743586	86	2.62391436835352	85	1
32	T6-P4	254792	254844	52	4.82585418781573	2.04097980899632	17.6085454919552	5.59076161341827	18.0114637983622	0.584747225459997	148	0.588718770080252	157	1
32	T6-P4	538223	538289	66	5.49987260917477	2.37290526002098	17.3640739990843	5.3721046277308	18.2532303201953	0.993043212112029	146	2.88919832817899	145	1
32	T6-P4	550751	550818	67	4.79704832245513	2.22743119646749	20.1999053069553	4.63809447582468	21.857932010833	0.808348868673698	131	0.657247936942846	130	1
32	T6-P4	557461	557621	160	30.2538869401061	2.81844433092712	209.765982826993	115.224129772075	209.765982826993	5.42692340663647	110	9.97954606130966	109	0
35	Pz-O2	542152	542219	67	7.10274708475821	2.28449066723129	26.4235144239699	9.66660393303409	26.4235144239699	0.468217466091168	128	1.02402674553907	127	0
36	O1-O2	83223	83272	49	4.3740459418059	2.25271490545127	15.0836240653575	3.77011167945595	15.0836240653575	0.620288826000402	178	2.12245141810927	177	0
36	O1-O2	542151	542215	64	5.35221926725558	2.0175496872376	17.3324775617065	7.03751471529474	17.3324775617065	0.716658650458754	128	0.914327763151813	131	0
37	F7-C3	267989	268050	61	5.24018733981744	2.42399845893845	18.5626948283119	4.67335689300127	18.5626948283119	1.11019503289481	176	2.56854085240544	175	1
39	F8-C4	12006	12064	58	4.64546035220311	1.86433172156564	16.0607561759679	6.20884956471662	16.0607561759679	0.703708560080626	133	0.753197768847922	148	1
39	F8-C4	248369	248457	88	5.87526824151509	2.00762826464679	23.4125684494447	8.56423935397389	23.4125684494447	0.774748772013279	148	0.795302342141035	154	1
39	F8-C4	250469	250532	63	5.12247305055213	1.98023105616383	17.8310976561448	6.69156390499196	17.8310976561448	0.561225240921558	129	0.911180777551029	141	1
39	F8-C4	257239	257291	52	4.61105820264559	1.99242332277134	17.4872656122104	5.35596801169235	17.4872656122104	1.03074442280269	152	1.138408389457	151	1
39	F8-C4	276568	276620	52	4.38863439054025	1.96173829549389	14.6915475950242	5.0046840332377	14.6915475950242	0.839218464657972	154	1.7369898508858	153	1
40	C4-Fz	69899	69954	55	4.90909305911676	1.84033203870558	17.4946740466056	7.11557754520273	17.4946740466056	0.57876387728413	140	0.948936660487736	142	1
40	C4-Fz	248372	248447	75	4.40031503496015	1.87128004279367	15.3334836497128	5.52955228601698	15.3334836497128	0.776705155614303	128	0.820205596326397	150	1
40	C4-Fz	250482	250539	57	5.27631081973527	1.77827910607415	19.7786172243809	8.80361194541045	19.7786172243809	1.15919297592347	145	1.16679456986197	144	1
43	T6-C4	3741	3822	81	4.70121651485146	2.20221403463243	16.5772262173593	4.55723531450245	19.7958661576701	0.760935310279027	141	0.76888820506059	140	1
43	T6-C4	14886	14953	67	5.67267352240589	1.73715625686322	21.8406510976788	10.6634517729307	21.8406510976788	0.498965390521047	153	3.35357177912357	152	1
43	T6-C4	54102	54166	64	6.4555110886171	2.00725266571261	21.3069881342405	10.3432536757384	21.3069881342405	0.966128578547703	126	3.37030572985348	125	1
43	T6-C4	63872	63945	73	5.32382561781372	2.21556800295613	18.5883822677699	5.77400923875586	20.1537583640219	0.697208542492742	151	2.8501120876496	150	1
43	T6-C4	81756	81828	72	5.62697934920951	2.01196963388831	20.8215861801815	7.82181966912603	20.8215861801815	0.538753291756664	144	2.79331517038608	143	1
43	T6-C4	245496	245588	92	5.28606141544183	2.22622986946378	18.1795537574289	7.01201152989548	18.1795537574289	0.53982899858962	150	2.74527080548655	149	1
43	T6-C4	246465	246531	66	5.7423665441405	2.51304678938856	21.9752296276842	7.39597191198494	21.9752296276842	0.544091954952214	137	0.675640194359007	141	1
43	T6-C4	247272	247338	66	5.22417247145373	2.18290107802613	18.040860273174	7.20622906533122	21.9752296276842	0.382308271737523	148	3.0431965343905	147	1
43	T6-C4	252161	252222	61	5.57138984422547	2.19016045920542	19.5598654939282	6.4710570458466	21.9732991892883	0.711204283398541	128	0.641371307021283	127	1
43	T6-C4	257234	257305	71	6.27845530450208	2.10800757746406	21.7169800855998	8.87076917141093	21.7169800855998	0.705793627322257	119	0.804166014187833	134	1
43	T6-C4	538219	538286	67	5.47648998869082	2.18279749585903	18.9738688347897	6.2947386353742	18.9738688347897	0.644167104909199	151	2.97831433462503	150	1
43	T6-C4	557462	557727	265	24.8877728619992	2.33772788944204	219.854195662167	113.340246523519	219.854195662167	3.79568269218331	107	7.13172054276835	106	0
43	T6-C4	577376	577444	68	6.69222820595889	2.01101406518219	23.8848425960244	11.074172086029	23.8848425960244	0.711387563790989	120	3.71727085669018	119	1
47	T4-P4	6941	7013	72	5.52726555844806	2.6175416461244	19.1606826927233	4.45895881752348	20.6365425822967	1.95905854977138	93	2.95752571400799	92	1
47	T4-P4	11979	12071	92	5.43740733982162	2.53718624191094	21.4446947581565	4.59281595694726	21.8223178627935	0.728658969171483	121	0.754733884596472	138	1
47	T4-P4	16377	16442	65	5.70288010633575	2.29706717967441	19.1085582854528	6.16369427727159	19.6356044351944	0.792392397533383	151	3.00952877954182	157	1
47	T4-P4	36990	37065	75	4.74378270010115	2.5477149379345	17.9408670841817	3.46695262327716	20.8811109460458	2.09858862795359	89	2.64588376604132	88	0
47	T4-P4	60114	60162	48	5.40774177992071	2.1790101743237	16.8229344087902	6.15904497611527	16.8229344087902	0.572769481391866	153	3.07333715392812	152	1
47	T4-P4	120574	120635	61	5.85229139160717	2.30873013476828	20.8727229662129	6.42547947534787	20.8727229662129	1.61327605937168	88	3.24045295842143	87	1
47	T4-P4	245505	245606	101	5.21862009133671	2.49527221725321	20.4273565269614	5.45895410728127	23.4981627324081	0.835911053412553	152	2.91413067931631	151	1
47	T4-P4	246466	246553	87	5.75449754184084	2.57546480277518	23.1205347656476	5.99254485571376	23.4981627324081	0.641773813609992	149	3.12488862666914	148	1
47	T4-P4	250465	250531	66	5.25809555133884	2.40246920742143	17.8339863668764	4.79006368926567	18.5701700076255	0.427745851058415	146	0.496978484200594	145	1
47	T4-P4	253670	253727	57	5.11245661313057	2.2940807781424	19.5329932137724	4.96640186977218	19.5329932137724	2.05860354006156	92	2.73592934151954	91	1
47	T4-P4	254786	254869	83	5.39675881854228	2.61088102287567	18.8463430811222	4.27259626514114	20.5795998795185	0.862997292321083	148	3.02321105743186	147	1
47	T4-P4	257218	257307	89	7.37779302447732	2.28957411985384	29.7461138285538	10.3834940898462	29.7461138285538	0.600330538667039	152	0.522482078275888	151	1
47	T4-P4	539245	539326	81	7.25637297424855	2.43108430603317	28.5130336171568	8.90920915913174	28.5130336171568	1.08921900547208	148	4.08612862950377	147	1
47	T4-P4	542123	542195	72	7.72249771050943	2.28478021004567	26.2212291303621	11.4242242549976	26.2212291303621	1.03023735149832	152	4.52277192915289	151	0
47	T4-P4	543493	543557	64	6.28407918944444	2.40085409348475	23.7563667753863	8.03689647995384	23.7563667753863	0.981247946087742	161	3.69236351622669	160	1
47	T4-P4	544474	544547	73	5.28219010072125	2.4185168094163	18.9679660024002	5.91236453184978	23.7563667753863	0.940849854877768	150	2.6097083244298	149	1
47	T4-P4	577383	577443	60	8.41911912102195	2.37667772160678	35.8481517814438	12.5485260976402	35.8481517814438	0.74405403169168	162	4.28379401709237	161	1
48	P4-Cz	11982	12054	72	5.81963673727371	2.08526868266188	19.8306244065384	7.78874905828968	19.8306244065384	0.735530528825843	136	3.09450465412862	135	1
48	P4-Cz	122974	123057	83	4.96018176648315	1.97877904052394	19.2144115334566	6.28348495977296	19.2144115334566	0.683427759706142	145	2.56545685692516	144	1
48	P4-Cz	236550	236605	55	4.87412515313442	1.99815686308671	15.7809715440415	5.95023604834132	15.7809715440415	0.621476795303494	155	2.27476947412169	154	1
48	P4-Cz	245504	245583	79	4.26661785773201	2.13300861226006	15.3032911256045	4.00112643801151	19.2108413720315	0.707092773929793	139	2.14476643609353	138	1
48	P4-Cz	250482	250548	66	4.98016456325958	1.95495362410726	18.40039690803	6.48954829214821	18.40039690803	0.677021630191664	146	2.65179547333991	145	1
48	P4-Cz	253676	253735	59	4.77613050039202	1.92515351779667	17.3382927226797	6.15490898098586	17.3382927226797	0.890857578189723	140	0.928702657893236	145	1
48	P4-Cz	257213	257289	76	4.72747840232353	2.04158107356308	18.0914154799327	5.36198808975049	18.0914154799327	0.632056092395104	156	0.59989569583113	155	1
48	P4-Cz	575459	575524	65	5.12322429791236	2.03720972718609	19.0429085438175	6.324340696441	19.0429085438175	0.540415558603818	129	0.596925425082881	128	1
51	T4-F4	16383	16456	73	4.80914504752145	2.27928015528892	17.2034014757873	4.4518480563952	17.4248932293148	1.80106803996802	99	2.34223097484185	98	1
51	T4-F4	218456	218508	52	5.90328475428565	2.56864774753256	20.3028501138164	5.28175634601819	22.8330815601597	1.33833592158381	140	1.29806603160285	139	1
51	T4-F4	236503	236556	53	5.6239486613893	2.48866458816653	20.7030381540229	5.10681304135398	21.3084693072782	0.841247450209053	114	0.97951560073099	113	1
51	T4-F4	246480	246535	55	6.3921832887815	2.62009054792204	21.2151590107893	5.95203995652401	23.4036242918416	0.899355988062255	149	0.901535291106023	148	1
52	F4-Cz	500478	500528	50	3.50423586611296	2.06106784120804	10.8744086927369	2.89069377066507	14.4429641245663	0.322044192810775	142	1.90054373810617	199	0
