nChannel	strChannelName	indStart	indStop	indDuration	Event_RMS	Window_RMS	EventPeak2Peak	SNR	Amplpp	PowerTrough	Ftrough	PowmaxFR	fmax_FR	EvPassRejection
1	Fp1-Fp2	445381	445426	45	9.47863676007842	4.96561974553695	33.6818777986386	3.64371870843854	33.6818777986386	1.45113338326197	169	5.18647712445484	177	0
2	Fp1-F7	91463	91533	70	5.30295693294154	2.63052737285696	19.6557377056899	4.06397052500495	19.9860224412801	0.856093204962218	111	1.42168090209439	110	1
2	Fp1-F7	340248	340336	88	5.55744746466336	2.5700558458939	19.2684718391682	4.67590426795779	19.2684718391682	0.56605809815853	111	0.645094379697457	110	1
5	T5-O1	45508	45576	68	3.25404628548828	1.62655826324921	10.8524232237856	4.00228677170943	12.1171226426695	0.362128083217024	83	2.91146170748409	82	1
5	T5-O1	247058	247163	105	3.2189375984399	1.71919761854827	10.4223115281206	3.505690029707	10.9662652929676	0.237841848457368	87	0.242269082516906	102	0
5	T5-O1	369059	369119	60	3.32324272157006	1.82267697603664	11.6772598759702	3.32433444269044	12.7420296417048	0.40114055417696	130	0.64885263904028	129	0
6	Fp2-F8	172061	172108	47	9.37820261696029	5.0624363128881	30.0662985820919	3.43178504684273	35.7277095172566	1.52693766153572	172	4.74630847288955	171	0
6	Fp2-F8	189474	189518	44	8.78397844444704	5.06239239825816	28.9570352542007	3.01072377459594	30.1313658486783	1.26676991120974	180	4.41590190385727	209	0
6	Fp2-F8	359549	359598	49	8.89647619124123	5.23134539331688	28.4791233730611	2.89207300800427	33.9686986109988	1.45695622655296	190	4.54768391498317	189	0
8	T4-T6	9933	10024	91	4.77671963674934	1.92264740214484	16.002814875176	6.17248740511099	16.002814875176	0.707980349671926	91	2.75080167090514	90	1
8	T4-T6	53070	53250	180	5.92281998029305	2.27990911339567	21.6916969441387	6.74872911399338	21.6916969441387	0.65438934289984	83	0.692795930307354	82	1
8	T4-T6	138018	138098	80	4.63105048015901	1.93573477573979	17.1916065547595	5.72357430606615	17.1916065547595	0.381906354066725	NaN	3.06595625293079	300	1
8	T4-T6	168133	168237	104	7.68188176335818	1.93530897791731	45.974910663186	15.7555879424486	45.974910663186	1.58046672717322	112	1.38201945363357	111	0
8	T4-T6	181186	181267	81	8.64141826646842	2.39350639082391	35.9699992941705	14.7583661072514	35.9699992941705	1.62762606005991	83	5.37781476747859	82	0
8	T4-T6	181479	181555	76	4.73695833616379	2.76137701000375	17.8257145166956	4.71534576852129	35.9699992941705	0.362204455065876	92	0.799706502118705	93	1
8	T4-T6	200908	200978	70	6.32689449987598	2.44444848418225	25.4827882764916	6.69914545070926	25.4827882764916	1.18545453165832	83	0.499344936932232	82	1
8	T4-T6	288014	288125	111	5.9564458474271	2.20512207187377	23.0949373214481	7.29640820406481	23.0949373214481	0.609272462476591	103	0.500221557028074	102	1
8	T4-T6	343213	343391	178	5.36779013753256	2.58497313839236	20.3123353777763	4.31200233226179	20.5771642092896	0.600422878929082	83	0.521360765202001	82	1
8	T4-T6	359188	359251	63	5.21231433176339	2.02988334384539	17.039223979559	6.59354594018249	18.5100273139347	1.01825372440873	83	0.766611328756408	82	1
8	T4-T6	385527	385593	66	11.9693466556993	2.48391810650722	61.3229096506821	23.220220730347	61.3229096506821	1.55846771520009	NaN	8.89203230379096	300	0
8	T4-T6	489872	490010	138	4.96154849219452	2.27936456532397	20.8071556327032	4.73812916389838	22.4307084705572	0.725796868119189	92	0.768400954003974	108	1
8	T4-T6	500825	500890	65	5.36613995653835	2.21298391997911	17.3091769514431	5.8798666187413	17.3091769514431	0.919721573567284	83	0.668613143749199	82	1
8	T4-T6	512321	512388	67	5.11928361732664	2.09151051333321	16.6445108632801	5.99098562925397	17.0545727359242	0.6761413957347	117	0.564053765458564	116	1
8	T4-T6	559323	559397	74	8.84824937123114	2.93844921932358	31.9389813633544	10.2217147576344	31.9389813633544	0.632097927821783	109	0.794604786704308	108	1
8	T4-T6	560136	560215	79	5.66022118738263	3.26450172260244	18.7819250637038	3.9938501218302	31.9389813633544	1.11207056166268	83	3.4224650008097	82	0
9	T6-O2	9934	10001	67	4.34753564960493	1.32463893363811	15.7000199213599	10.7718741918376	15.7000199213599	0.636433881108974	89	0.722598603305525	88	1
9	T6-O2	19242	19314	72	4.62946471351753	2.31601571694192	18.7828956079573	3.99556823521239	20.6712160608692	0.932046548598276	88	0.670631089362738	87	0
9	T6-O2	33171	33376	205	4.51827500092175	1.71783508391916	22.4302305254273	6.91802909562331	22.4302305254273	0.905300371165102	83	3.68080286698393	82	1
9	T6-O2	53077	53258	181	6.31268778044844	1.90998254678068	26.5988358038948	10.9237014630763	26.5988358038948	0.445973884484457	108	0.528741790889386	107	1
9	T6-O2	101126	101263	137	5.21215194808925	1.73450497936747	25.8223300019254	9.02990194247961	25.8223300019254	0.677613144415444	97	0.428059426054502	96	1
9	T6-O2	103434	103540	106	4.10061922086505	2.09696895665167	15.053487258377	4.30398581128374	18.958686209397	0.547167221845495	83	0.540536191273142	82	1
9	T6-O2	103724	103812	88	3.86360808789195	2.17136738158895	17.2756444092051	3.70327589857946	18.958686209397	0.519156187112843	114	0.76907463866031	113	0
9	T6-O2	153881	153965	84	3.39216111905237	1.68444909754609	10.8647229592248	4.05543234661962	13.0240847408052	0.224277034569263	83	0.514959633381989	82	1
9	T6-O2	168133	168224	91	7.64211492860786	1.58548962831893	45.3050983326607	23.2327339231989	45.3050983326607	1.7413560770008	83	1.34535693773515	82	0
9	T6-O2	181173	181272	99	7.95628778036848	1.8408062307017	34.8828884829746	21.2688511411311	34.8828884829746	0.864025650432256	109	4.67171856852246	108	1
9	T6-O2	181432	181519	87	3.51368515772047	2.47219856406796	12.3638510655786	3.98035874958014	34.8828884829746	0.414967441913418	83	0.37458086784973	82	0
9	T6-O2	184599	184678	79	4.81938010600195	1.70037837964472	16.0494504386611	8.03324870432854	16.7538724739712	0.457208046205606	90	0.548492269638624	112	1
9	T6-O2	188181	188386	205	4.75892953843548	1.99197934852902	24.4267884205891	5.70753897612451	24.4267884205891	1.15755182705198	83	0.526430184885583	82	1
9	T6-O2	215085	215155	70	3.70319435068064	1.77739758690717	12.8462782720039	4.34094054939837	12.8462782720039	0.855314631728953	98	2.04025259290732	97	1
9	T6-O2	236263	236367	104	4.36075313888891	2.23241287458017	15.6029195594288	3.81569776084044	19.783842199043	0.308491451870974	NaN	4.59189573165891	300	0
9	T6-O2	280465	280548	83	4.06061435308126	1.75647345134201	14.9785531717968	5.34441668209296	14.9785531717968	0.421399869795966	108	0.414442560845228	107	1
9	T6-O2	288017	288110	93	4.60504761542676	1.77921992713549	17.3171863295232	6.69898464277902	17.6281891479291	0.300622503298456	93	0.369249293164466	105	1
9	T6-O2	297474	297578	104	4.39487226542631	1.8988407050349	15.0695724695176	5.35692354486806	18.1078751572632	0.583034339354971	83	0.440213849773218	82	1
9	T6-O2	301374	301458	84	3.73994744019501	1.5877655103395	13.319101007423	5.54827871932656	13.319101007423	0.615815917040913	83	0.36120331122399	82	1
9	T6-O2	317971	318079	108	4.56529668786012	1.97510259153062	17.446275339277	5.34267424966403	17.446275339277	0.40359709195384	113	0.413825883169934	112	1
9	T6-O2	334783	334868	85	3.48715806020644	1.9392058945784	11.9223816369629	4.45828245530139	19.3339992961644	0.47224831120776	84	0.449137304120484	83	1
9	T6-O2	335017	335115	98	4.85749556278579	1.83250192984803	19.3339992961644	7.96447960540794	19.3339992961644	0.635905530284094	95	0.643434710846388	105	1
9	T6-O2	342957	343034	77	4.93596845603622	2.55582165802137	19.2493930397055	5.16950535723791	24.2091569286101	0.7184332860232	103	3.64996254826471	102	1
9	T6-O2	343313	343413	100	6.3826003273304	2.26996956302407	24.2091569286101	9.31543835276002	24.2091569286101	0.732072399131945	83	4.39507178550131	82	1
9	T6-O2	391476	391565	89	4.30115017584267	1.91006759454616	17.517010248598	5.07074463120468	18.5618637072	0.766620431295943	83	2.97822253178347	82	1
9	T6-O2	406205	406287	82	5.74399938338512	2.03073998128209	20.6684183935926	9.17592841482529	20.6684183935926	0.577872188226765	99	0.77911983462173	115	1
9	T6-O2	406397	406496	99	3.76304881843007	2.22983061125501	14.4566319861449	3.76719442124782	20.6684183935926	0.535015591209096	78	0.611299993848107	82	0
9	T6-O2	410860	410934	74	4.35294962766198	2.47029968526339	13.7890331554633	3.10504570343448	14.9196213094545	0.574258217293253	83	2.55028339188179	82	0
9	T6-O2	420939	421012	73	6.78057449471303	2.04168661030466	24.9831844092567	13.4072045649144	24.9831844092567	0.496163541122859	NaN	4.99130890194188	300	1
9	T6-O2	421095	421158	63	5.15086110431425	2.21612249527558	21.1860387858065	7.95921300567527	24.9831844092567	1.13826777818606	83	2.69837757666162	82	1
9	T6-O2	427753	427866	113	5.02604065203827	1.74441428041524	16.7998402738134	8.30142650494173	16.7998402738134	0.648109342235452	83	0.488731723133678	82	1
9	T6-O2	480422	480501	79	4.69480372091973	1.91884769967427	18.619053162092	5.98623647125812	18.619053162092	0.584767450447148	83	0.95066123342486	85	1
9	T6-O2	520404	520656	252	5.00033905716383	1.51740399783564	29.0661218337155	10.8591656742109	29.0661218337155	0.343931996667007	103	0.45386301841072	102	1
9	T6-O2	531894	531962	68	3.89340983818181	1.78795889830568	12.8776449993955	4.74182128661483	13.273638241969	0.537427556126385	83	0.365304484907384	82	1
9	T6-O2	559268	559415	147	7.04243786654483	2.45778357813671	30.0342119981696	9.74424548373753	30.0342119981696	0.750591424163509	108	0.561370753766045	107	1
9	T6-O2	560138	560210	72	5.58056903707003	2.84714370788104	22.8479613946867	6.5007557658715	30.0342119981696	1.35195129273091	83	3.06903341439652	82	1
9	T6-O2	592007	592128	121	4.78457904080402	1.51026031936268	17.4584835577273	10.0365359192881	17.4584835577273	0.643294410449509	83	0.347858279722452	82	1
10	Fp1-F3	579054	579136	82	7.09572118783604	3.31126325073476	25.7085664708979	4.59204004189826	26.7256165191692	0.843815996038194	114	0.871971216108942	113	1
12	C3-P3	148460	148524	64	10.7526008296025	6.02711513937498	38.5822855226585	3.1827906326624	43.1529806493106	2.23458864249063	164	5.74538168003675	163	0
13	P3-O1	54252	54296	44	11.6193980260779	6.07072791868191	36.1846629010502	3.66341163159368	41.5429018457245	2.72985449798058	159	2.86329435932124	166	0
13	P3-O1	148461	148523	62	11.1049131504765	6.04053996158543	41.6639448347467	3.37970511628259	45.7899414413938	2.44308455902699	164	5.69963404224057	163	0
14	Fp2-F4	127569	127623	54	7.9576368042778	4.86441157354503	27.7382609507229	2.67613242997577	32.482638548077	1.30669609817967	163	1.30723042252479	168	0
14	Fp2-F4	172052	172097	45	8.06896977305523	4.54085775898062	26.6982541036095	3.15762375922359	28.2325235702463	1.65606236838195	168	4.0755626685842	167	0
14	Fp2-F4	313200	313244	44	9.49858566872391	5.03294655541481	30.7199793046508	3.56183051842958	31.7239994751555	2.62928317391881	123	2.96147584482953	160	0
14	Fp2-F4	532232	532290	58	12.3544420016203	4.88365397240592	43.7064699876373	6.39965408870755	43.7064699876373	2.70272038255632	157	5.59684899032955	156	0
16	C4-P4	176878	176970	92	14.9058781062771	1.86873443091181	94.9084793429746	63.6238515357742	94.9084793429746	1.60349275117223	NaN	8.02978724482146	300	0
17	P4-O2	19306	19464	158	4.6457259559819	1.60725500770167	20.2688818524299	8.35482967532475	20.2688818524299	0.35201621645079	199	0.561145499531362	300	1
17	P4-O2	176877	176971	94	14.6370320679749	1.7709470390712	94.16599197036	68.3116698162617	94.16599197036	1.6322363935965	NaN	8.85527754359346	300	0
17	P4-O2	236219	236286	67	3.75625976919493	1.81044650162385	12.8364401115012	4.30466982180032	12.8364401115012	0.421277267783224	83	0.650789851610867	82	1
17	P4-O2	285235	285306	71	3.51406792659211	1.47000285894601	11.6538750496238	5.71457511218989	12.3885953136378	0.705910747134346	85	0.754486134430096	84	1
17	P4-O2	314872	314963	91	3.653541679967	1.60233061548964	12.5284531889748	5.19904852404645	12.9878706818779	0.478516970495845	92	0.558234874362786	110	1
17	P4-O2	317883	317958	75	3.76984329144056	1.62454114068303	14.0908981762803	5.38499329129107	14.0908981762803	0.35863326659492	108	0.552138981784884	107	1
17	P4-O2	559378	559454	76	3.79875340583154	1.84518423745813	12.6881105117599	4.23840772948461	15.8181781699591	0.822735609740792	83	2.13407654834933	82	1
18	Fz-Cz	9067	9122	55	15.4915598505126	10.6804769032959	55.5812526591436	2.10382207646967	82.5076001827533	4.32070207138024	145	8.55354027925012	179	0
18	Fz-Cz	18479	18537	58	20.2583294053426	13.6559703099	78.5212111663401	2.2007065163078	113.542829471194	5.15218565827347	177	10.0901209918212	186	0
18	Fz-Cz	39281	39326	45	18.1214258140797	14.5713741715665	58.4541116152246	1.69073885199889	135.255839703909	4.49835023867533	61	8.49537211272182	84	0
18	Fz-Cz	39877	39945	68	26.8108689314366	15.037126592265	130.561809531812	3.21322470662212	135.255839703909	5.86576510838478	147	13.0124382952403	148	0
18	Fz-Cz	42120	42202	82	33.5017111321019	15.6800676022466	132.668389354971	5.16654274716731	150.982983323329	3.70486228879841	141	16.7260407759384	140	0
18	Fz-Cz	42497	42558	61	33.7742942966954	17.0168679354776	134.439702445161	4.64596451108262	150.982983323329	5.50287464661935	82	13.2626173866978	106	0
18	Fz-Cz	43354	43430	76	21.0824988424714	18.816011553669	85.3655428312915	1.53688355498727	147.90861460444	5.32948083348563	164	11.6267412200305	188	0
18	Fz-Cz	44013	44154	141	23.4209871625864	14.9310900884179	95.0663155492042	2.99021068682491	122.967761285765	7.04352071632684	73	9.11726423230333	82	0
18	Fz-Cz	44233	44410	177	22.6771483897661	14.6871667622946	112.953850690988	2.86833928498443	122.967761285765	2.3228203704305	145	9.48164058930417	209	0
18	Fz-Cz	90959	91000	41	16.0419286619154	9.30669381864519	56.7208518964251	2.97113447668048	91.1585525930814	1.38282450564736	149	8.12192248463806	198	0
18	Fz-Cz	102035	102076	41	17.2167470206282	9.50703739950405	66.203994756955	3.27953138476757	70.7101728150622	3.26194977301607	188	9.98194482167441	187	0
18	Fz-Cz	127967	128032	65	29.236140334468	15.6461377721954	135.324446187309	3.49161037645167	136.856510561633	6.8203864423274	126	14.6865436926349	137	0
18	Fz-Cz	130452	130500	48	33.1006555216993	20.179439329625	136.414455511681	4.71009517721866	170.704677112154	4.94122857613232	125	15.1734928524429	231	0
18	Fz-Cz	130585	130805	220	28.2161397471011	21.5516724201261	139.189241921129	3.16807193479108	170.704677112154	3.53306879245814	238	11.2129235605763	255	0
18	Fz-Cz	131030	131278	248	28.4971840945027	24.441789872418	149.018598776409	2.11818671637403	170.704677112154	8.51467819145945	129	9.41958995941069	128	0
18	Fz-Cz	131362	131978	616	28.4427700660648	22.0360047307088	165.940336586153	2.41684208750987	170.704677112154	8.1222269680755	155	10.3352544488978	154	0
18	Fz-Cz	132121	132208	87	28.8106307089032	21.6805761647458	108.995255233997	3.44548653744666	170.704677112154	9.32287388837635	61	10.9379088256007	99	0
18	Fz-Cz	135891	136004	113	30.540636863935	10.3100980212598	138.580920773276	8.77466590618047	138.580920773276	5.98864780947704	125	10.8294680330376	124	0
18	Fz-Cz	208898	209023	125	29.8791779675187	15.9966607180434	132.076807640483	4.03667449281667	144.642793692956	3.7001460512673	188	10.7892900688487	238	0
18	Fz-Cz	209102	209244	142	26.5874449852991	15.5497063239524	124.018021264755	3.56971726734029	144.642793692956	6.04419697400033	150	9.46192087701954	202	0
18	Fz-Cz	254990	255052	62	19.0039907881389	10.056490086288	77.7549844873055	3.57105683989099	81.4957963525656	3.76315157236147	149	6.59916747015483	148	0
18	Fz-Cz	264077	264133	56	31.671351755508	17.4817084000013	119.848892390218	4.32784918372492	158.97979020988	6.58824227079908	117	15.0481638903539	128	0
18	Fz-Cz	264307	264361	54	15.3659924621931	20.3385906098905	49.001230310451	0.707804870000893	159.130103125907	1.77204726483343	162	8.35930186369476	161	0
18	Fz-Cz	264548	264646	98	32.7210644906424	19.4712770286682	158.97979020988	3.15899669092021	159.130103125907	2.35180209647781	134	14.1436316194625	207	0
18	Fz-Cz	264845	264888	43	24.2578367282756	20.371291761235	83.6843203949985	1.70551719548347	159.130103125907	1.2877034407282	120	12.7023492020087	229	0
18	Fz-Cz	265003	265109	106	26.2077868399909	19.5924672738258	115.981578831179	2.11877564368131	159.130103125907	3.83235836252319	126	11.6745494009254	226	0
18	Fz-Cz	295934	295984	50	12.8054766901017	10.4631665543183	45.4012516365311	1.49783930498284	104.102115774805	2.47897196926502	171	5.33881539375863	193	0
18	Fz-Cz	307703	307754	51	16.9791372516269	8.18890625073956	59.9181774264622	4.29911873250776	103.646323986586	3.34256898405397	146	9.41485182928919	162	0
18	Fz-Cz	330051	330108	57	20.5697223602216	10.3413110913697	72.978358040828	3.95644974626378	82.0216522703602	2.42199802868758	199	10.2672262989449	234	0
18	Fz-Cz	335028	335078	50	25.6913750563462	11.2735024912724	115.073690520742	5.19346211856332	115.073690520742	3.46935264474181	152	12.6416886129717	195	0
18	Fz-Cz	340130	340175	45	19.6322224004992	9.07287190248655	76.3641753226859	4.68219365424965	76.3641753226859	1.39563775955938	169	10.4832340008486	196	0
18	Fz-Cz	345899	345939	40	20.3453417220784	12.4481306836206	73.5417264378667	2.67129406589018	103.904407721165	1.72300151820718	173	10.2095964785553	233	0
18	Fz-Cz	349738	349804	66	25.8772001222696	10.6692282013318	95.5440895294822	5.88258973074557	111.288984598603	7.64404509147895	135	10.4938616036132	134	0
18	Fz-Cz	354927	355077	150	27.0471173530761	13.273566608433	119.368808153843	4.15208947486874	122.856973817493	3.2717741471515	174	11.6225756030494	228	0
18	Fz-Cz	371151	371194	43	12.8413911544864	11.5785997760669	42.6106620632914	1.23001969410597	81.6131465766403	0.847934556132028	156	7.21511672951343	205	0
18	Fz-Cz	375808	376009	201	21.7925639825489	13.8351031179724	146.214642029438	2.8828581842239	146.214642029438	6.44642217486722	151	9.52337334533853	169	0
18	Fz-Cz	376813	377095	282	20.0388461706433	14.8876886565057	88.9598961231522	2.07770706064292	146.214642029438	6.96632616066464	160	7.28443688330729	160	0
18	Fz-Cz	381859	381899	40	32.3147735903536	12.7042578330137	129.930874831712	6.46999040347499	129.930874831712	4.21257733215058	185	16.4170770244941	219	0
18	Fz-Cz	385968	386008	40	19.7960829399549	10.4389420686242	69.7544595097888	3.59621422450482	78.8059527732073	6.32843315289086	148	7.30774505723425	180	0
18	Fz-Cz	402812	402869	57	36.1807738563656	15.4915290444475	134.462393305177	5.45465305001131	134.462393305177	7.11834355041309	167	14.5502274460485	166	0
18	Fz-Cz	413486	413587	101	24.629831973402	10.7522424912256	99.6154250380592	5.24716592402415	99.6154250380592	6.86334225682806	169	10.3505705605127	168	0
18	Fz-Cz	417798	417864	66	22.1071139862846	14.6887975279116	101.405754251901	2.41288022909524	132.246029408532	2.78285383047761	154	10.8296689783469	200	0
18	Fz-Cz	417958	418003	45	18.9507407340491	15.6624883082924	72.3753642933918	1.57702328927499	139.976634854751	1.21838176255598	155	9.1586462246993	255	0
18	Fz-Cz	418251	418311	60	22.7523525862825	15.6446147002981	85.8684155326199	2.21886905581309	139.976634854751	2.72611108592979	123	8.03020206119669	141	0
18	Fz-Cz	419579	419621	42	16.6648952247258	11.4007526090635	57.8136686911372	2.13667334120627	126.420275610125	3.87795329320433	169	3.90527920703065	183	0
18	Fz-Cz	422982	423050	68	18.4612516273599	14.2275687629566	67.6329154847847	2.0260812545628	121.278894451186	4.4769624834927	154	8.73462453314655	161	0
18	Fz-Cz	423712	423852	140	25.562499272112	17.8221939216964	115.246118415883	2.36036468658522	131.133606229314	4.03698433095552	197	10.5494195279548	246	0
18	Fz-Cz	424155	424232	77	22.1628498613131	17.4348231176222	82.3633666503609	2.05063642614464	131.133606229314	5.23465713286226	114	10.0692940298444	135	0
18	Fz-Cz	424316	424377	61	20.1038035505587	17.3753387809284	77.9769145197824	1.75031529246843	131.133606229314	7.15099015203096	111	6.8267369414956	148	0
18	Fz-Cz	424456	424663	207	23.0110036754316	15.7451554801415	121.805435684032	2.67465501211509	131.133606229314	4.04362689008931	119	8.92801604812754	196	0
18	Fz-Cz	427866	427920	54	25.436226472352	12.889992197568	99.3714319960554	3.89403685192783	131.915950378081	7.51100142313094	138	9.45051919587183	178	0
18	Fz-Cz	431956	432011	55	28.6480464417179	13.0608347841295	136.754289189881	4.81114174852168	165.631977454956	1.87574233467738	166	12.5427254959996	204	0
18	Fz-Cz	437891	437935	44	16.0194723889782	9.35556037315728	52.3908066199288	2.93195165586713	68.7971236150223	1.80552679270433	207	8.7965717551473	218	0
18	Fz-Cz	492207	492251	44	16.4778521658867	9.3311077289439	60.3781873963097	3.11842136675001	68.572406403004	5.45672633869477	139	6.16115271479728	175	0
18	Fz-Cz	515471	515544	73	20.4846140681312	9.22532376137669	87.8494818199688	4.93051562282008	93.3326948833333	2.4463188007372	147	9.5399398715939	219	0
18	Fz-Cz	520301	520348	47	12.6996856097112	9.016369616979	38.8844583433951	2.0786039472262	59.4888352296675	0.777545899150038	100	6.9460390010572	196	0
18	Fz-Cz	520471	520512	41	15.9356366720603	8.73908166415907	49.3192010631588	3.4185818113308	59.4888352296675	2.76776192666796	161	8.74550467245504	176	0
18	Fz-Cz	541399	541444	45	17.366181904641	8.20685227829076	62.8830702886102	4.4777048042484	65.6075460655954	4.28885038835406	167	8.73303522475224	166	0
18	Fz-Cz	562742	562806	64	20.8599269427242	9.73634670411477	88.9331210387552	4.59022004696699	88.9331210387552	1.65494798326487	129	10.8119950641235	204	0
18	Fz-Cz	590927	590969	42	20.3467674527497	9.91851575774651	69.8416378280624	4.20821061663903	82.1604310861234	7.38392588309153	158	9.56577543533979	188	0
18	Fz-Cz	595587	595637	50	21.0959355500514	11.4006135029382	77.4617290768574	3.42405817307524	87.6259335642054	5.42955680763074	172	6.95582521807429	171	0
19	Cz-Pz	18198	18269	71	23.6478489571581	13.0391561400916	105.572621337821	3.28915480234161	110.868188915077	2.80289327033221	181	13.2366331954005	198	0
19	Cz-Pz	40734	40775	41	17.7676900022967	12.1031021242294	60.2365793778335	2.15510552882912	127.57771002656	5.09739482209982	162	5.47277332462723	187	0
19	Cz-Pz	42119	42202	83	32.6259326493769	15.6821188071939	129.337546067073	4.93701348986661	148.889311307733	3.52917614068876	141	16.4156482635175	140	0
19	Cz-Pz	42497	42558	61	34.5507073172279	16.9697643685063	139.092438604752	4.87083843742103	148.889311307733	5.46237763069017	82	13.6148658992459	107	0
19	Cz-Pz	43353	43430	77	21.5050580797355	18.9476615344266	88.2140905974517	1.55180385337184	148.728196691044	5.46602021847071	164	11.934069812386	189	0
19	Cz-Pz	44013	44093	80	21.8526539373194	15.6600712685873	80.7335123712098	2.32591159478219	122.997885210399	4.38220048769115	61	11.6715846861928	82	0
19	Cz-Pz	44232	44316	84	30.1455927299698	15.0029380832508	114.780650272903	4.4563604906094	122.997885210399	3.00166685239976	121	13.4609984927625	209	0
19	Cz-Pz	127517	127568	51	24.2026678879427	16.4579800382016	100.824217159862	2.33869216492114	138.299198075153	5.44079217581561	160	10.4122911154883	160	0
19	Cz-Pz	127965	128033	68	29.0115414886281	15.7461639945279	136.115599963425	3.5227545116872	138.299198075153	6.90485976053264	126	14.3704931699085	137	0
19	Cz-Pz	130418	130805	387	27.6088596868308	20.0110440494358	149.826208521799	3.02894601012412	169.767877091581	5.17964888052781	160	11.6378591260599	242	0
19	Cz-Pz	131031	131277	246	28.8108945684428	24.3222772651894	150.699117702144	1.98293136662381	169.767877091581	8.67333702706125	128	9.54381612647859	127	0
19	Cz-Pz	131363	131572	209	29.7091391880077	24.8832018946618	131.371201325348	1.84941275633439	169.767877091581	9.05036854483007	146	10.2058982169355	145	0
19	Cz-Pz	131714	131978	264	26.6944906773187	22.8491011743095	130.713441633269	1.93698527660848	169.767877091581	7.40485878586288	157	9.87579395369743	176	0
19	Cz-Pz	132121	132207	86	29.098762573501	21.6974642772612	109.284885370925	2.74602442363979	169.767877091581	9.42841403333101	61	10.9727726513342	99	0
19	Cz-Pz	132466	132509	43	16.9279065849266	19.0848904908709	57.159526796884	1.31569022009059	164.480392109676	2.95126935595743	160	9.48961380479914	178	0
19	Cz-Pz	135948	136005	57	25.8640449708905	11.879305811419	92.668509526587	4.74035392500722	140.338891402237	5.62421933717491	132	12.0631918417246	160	0
19	Cz-Pz	208898	209023	125	30.3934914880042	15.9131387588825	133.668237337918	4.24306499665557	143.932970372768	3.69725814979979	186	10.8721142708768	238	0
19	Cz-Pz	209102	209244	142	26.7290984098226	15.5194936572774	124.43791174989	3.66497172188333	143.932970372768	5.37136965077731	144	9.66169492417356	202	0
19	Cz-Pz	254991	255052	61	19.042109978379	10.0037438516574	77.2375606026102	3.62330599239985	81.7805560141893	3.81362702985348	147	6.34796907080554	146	0
19	Cz-Pz	264307	264361	54	15.2079550236312	20.2866244968479	47.7109496936524	0.603352782247537	158.988188813261	1.80382493310837	162	8.42871956785443	161	0
19	Cz-Pz	264594	264654	60	24.6443853453101	20.2301976862856	93.4658562658166	1.54547898476365	158.988188813261	1.96736625282014	170	13.7691516172272	204	0
19	Cz-Pz	264846	264889	43	24.2494483240082	20.3150561570149	87.0103135654807	1.49128349927871	158.988188813261	1.61432547787811	119	12.7572019925902	231	0
19	Cz-Pz	265068	265109	41	29.123415433856	19.79703233007	112.825540887953	2.24993944635794	158.988188813261	2.35608594887556	165	16.2276329205505	245	0
19	Cz-Pz	265194	265244	50	25.7410275147705	19.0109577296149	94.267472224985	1.94803604832016	158.988188813261	3.76617781235322	120	11.4192810816789	119	0
19	Cz-Pz	285031	285073	42	14.986355373614	8.46445644921605	50.3173319184206	3.13468498816518	65.4917085772596	1.11269974286184	134	8.82757955942492	199	0
19	Cz-Pz	330051	330108	57	20.4490937284902	10.296015185513	72.5490355136441	3.94466187051664	81.7256629887561	2.60093181149693	200	10.3542178629869	234	0
19	Cz-Pz	335028	335078	50	26.3001050802959	11.2912496883114	114.017687871921	5.42538977891549	114.017687871921	3.65591890808258	154	12.875773512357	196	0
19	Cz-Pz	340130	340186	56	17.9605948612671	9.1485575205039	78.7890446497067	3.85421721720306	78.7890446497067	1.29830090971333	140	9.33902571862082	199	0
19	Cz-Pz	345736	345776	40	19.1033228662577	12.7919318575185	65.5917965548902	2.23020896383977	102.398040993131	1.1680831832281	162	10.3414272446959	195	0
19	Cz-Pz	349738	349804	66	25.5735097332447	10.5996137761798	95.674774734754	6.15705628640499	112.769112046375	7.46194934306224	136	10.4213712089467	135	0
19	Cz-Pz	350572	350618	46	19.1607797861675	11.8765992485497	72.9002502459224	2.97820340528267	112.769112046375	4.54099271893143	172	9.8498125448038	171	0
19	Cz-Pz	354517	354558	41	17.0443606336349	14.6311614564177	65.7288176194373	1.72915769850171	122.325855021093	5.25823509923625	173	8.24195453060879	186	0
19	Cz-Pz	354926	355076	150	26.9963564203988	13.3514273453691	118.677833689059	4.23346945484184	122.325855021093	3.21872720342547	171	11.5255172123147	229	0
19	Cz-Pz	355404	355452	48	17.8886932663927	14.7668136271948	63.7119186162819	1.84234068114976	122.325855021093	3.89013085648779	158	8.81209222448599	157	0
19	Cz-Pz	359127	359169	42	18.698169779899	10.2496998372965	64.6150189550086	3.3279431839978	95.3473296917687	2.53248877193344	183	10.3757122051134	185	0
19	Cz-Pz	365648	365696	48	18.1532145635849	10.1238562998094	62.3720813092422	3.21525289256245	91.9566573073097	1.86587042599253	166	7.34313978972671	198	0
19	Cz-Pz	371829	371883	54	20.4036534126486	10.1233846240835	77.9351298806786	4.06222898243439	81.5360239780265	2.19162743116989	127	8.08903299775388	224	0
19	Cz-Pz	375808	375870	62	15.899826000255	14.2970211156269	58.5083205987371	1.28120361357205	141.445385359165	4.49465356483986	151	7.93655904425275	186	0
19	Cz-Pz	375964	376009	45	22.3131430766395	15.0781690881108	77.4670058474415	2.36607896917713	141.445385359165	4.8244446243235	160	5.01478902242222	159	0
19	Cz-Pz	376866	377095	229	19.7408348596719	15.2027206574885	87.8558822031718	1.73330663972668	141.445385359165	6.61425125355594	162	7.11372041181998	161	0
19	Cz-Pz	381847	381899	52	29.484170605079	12.4996319635219	126.987176765603	6.1117006235917	126.987176765603	4.25606270437839	164	13.0680092525494	225	0
19	Cz-Pz	381998	382052	54	23.5517957733488	12.1174529347026	105.191077278404	4.47148587095391	126.987176765603	4.80641465123797	191	11.3575457924456	190	0
19	Cz-Pz	382301	382341	40	16.4928522028264	11.8135259703486	54.5595954854183	2.54101825237563	126.987176765603	5.96279926066498	145	7.75793110485311	188	0
19	Cz-Pz	396466	396511	45	17.4526332796335	8.95769851157044	57.2044246998424	3.79602482381528	73.158601700593	0.567517869840673	150	8.04374372247401	206	0
19	Cz-Pz	402813	402870	57	35.9373599391853	15.5344986404225	134.017733543611	5.35177511768017	134.017733543611	8.86569884899467	140	13.9385257022262	139	0
19	Cz-Pz	413486	413537	51	22.4168277865662	11.3653178149378	91.8047100884244	3.89031834888321	99.7246121451912	6.22242005726911	154	6.55261554449395	153	0
19	Cz-Pz	417798	417864	66	21.9054375357998	14.506226284682	100.710531417885	2.45711883615124	129.659613583029	1.57930164746069	154	10.6162716716227	200	0
19	Cz-Pz	417958	418085	127	16.7890106373037	15.3751621959771	69.3293792839771	1.28853836924581	137.102969485474	1.31178621997398	143	7.2615531225718	300	0
19	Cz-Pz	418251	418310	59	22.7002663778996	15.4805119283534	87.7756101084739	2.26271844352668	137.102969485474	3.05210639920996	121	8.05861115971542	141	0
19	Cz-Pz	422981	423067	86	18.9152133782708	14.1252235138846	72.0182903223649	2.3075907545776	119.50357091904	7.51188412728942	94	5.86611243962682	93	0
19	Cz-Pz	423542	423696	154	21.9299696776	17.9813985895891	114.227540210365	1.87201495136761	130.741887461089	4.25925981134178	115	8.4179840100187	210	0
19	Cz-Pz	423791	423852	61	27.839318045248	18.1873412603653	111.327912841492	2.91810729530503	130.741887461089	5.21417940898518	118	8.93532962122664	117	0
19	Cz-Pz	424156	424376	220	21.9732731792064	16.3735865609564	99.895004507846	2.35719287563474	130.741887461089	5.46013362811032	178	9.64554912897314	264	0
19	Cz-Pz	424542	424663	121	24.5234131778606	15.8675329150275	121.372289747978	3.42518036944807	130.741887461089	2.89330349516305	245	11.617748598881	265	0
19	Cz-Pz	427866	427920	54	26.0040546281442	12.8476076099803	99.9428853027772	4.09673254035178	132.769143952039	7.55325921946234	139	9.43072653900353	178	0
19	Cz-Pz	431956	432011	55	28.6289588695314	13.0011857549191	136.172994140075	4.84892182650921	166.145719813657	1.76203099509716	167	12.6157831939287	204	0
19	Cz-Pz	437890	437937	47	16.390069685442	9.34498303941748	54.731646734327	3.07612914955883	68.6686761502368	2.08284080679045	210	8.81843368374509	219	0
19	Cz-Pz	515471	515544	73	20.4964343867519	9.10121839516006	87.4789332653622	5.0717467710687	92.2722418338369	2.41228252135061	150	9.61848548155157	218	0
19	Cz-Pz	520300	520348	48	13.0489242277468	9.11217903301988	39.1811574795908	2.05071321711167	60.0164936171872	0.656731902111755	131	6.96086304981698	195	0
19	Cz-Pz	547723	547765	42	17.4302358119667	7.4733033820989	64.4906915631383	5.43977954163648	64.4906915631383	0.905101324563094	149	9.10725988980676	209	0
19	Cz-Pz	562759	562806	47	22.1576152229951	9.79707243677216	86.985603133247	5.11509135460811	86.985603133247	1.93863401362367	166	12.4995989353835	215	0
19	Cz-Pz	595587	595637	50	20.9374492663551	11.4519506026585	77.3342695301726	3.34263235013916	87.1694127259574	5.23360262515552	174	6.95234957022323	173	0
20	Fp1-Fz	98034	98109	75	4.70578556190851	2.53078931122956	17.3878626856898	3.45742113689137	18.6699322475784	0.426649292609295	98	0.519590687998533	106	0
20	Fp1-Fz	281213	281300	87	4.91076756555564	2.50104379647769	16.764314600403	3.85528211729088	16.764314600403	0.606137684145437	87	0.543780784900796	112	0
20	Fp1-Fz	340245	340338	93	5.32328328049978	2.41815569612941	18.3818306676214	4.84608063038584	18.3818306676214	0.375098294548598	104	0.570441447917954	112	1
21	Fp2-Fz	445373	445420	47	8.39245177400245	4.4901472063292	27.970580675684	3.49346623505813	29.8227553110753	1.45544763006069	163	4.94247494756911	175	0
22	F7-F3	26296	26344	48	4.70556103898488	2.82935259549833	15.2067322861337	2.76597771612409	18.4518352384752	0.679029623136589	164	2.30798765927573	163	0
25	F4-Fz	93587	93655	68	9.73510910452296	1.99633732969315	53.2579465414227	23.7801062548692	53.2579465414227	2.409622514426	77	2.89027675689168	82	0
25	F4-Fz	532210	532295	85	8.16148203182626	2.49115448163616	33.6638746790896	10.7333857512434	33.6638746790896	1.89355837415228	146	3.53097599669206	145	1
27	C3-Cz	8872	8918	46	20.5397555693727	10.6211070826367	76.5300325836541	3.73982230216886	82.3215157001183	5.92469448298911	181	10.2874758253077	180	0
27	C3-Cz	39281	39326	45	18.0400853065699	14.5619495406037	59.4766221814083	1.53475172469625	133.133713350352	4.43036771372992	61	8.20581148137471	84	0
27	C3-Cz	42119	42202	83	33.0983356991501	15.6791840688795	130.892918358148	5.05769480502553	150.428611736658	3.44722669078367	142	16.4882951607657	141	0
27	C3-Cz	42497	42558	61	34.0544218838839	17.0102386774026	135.629591903406	4.74079112811089	150.428611736658	5.35355465003046	82	13.2178302123916	107	0
27	C3-Cz	43354	43430	76	21.8655518698025	18.7467615714841	86.8946141108713	1.62534717550278	149.969483009723	5.53932629351539	165	12.133709769717	189	0
27	C3-Cz	44013	44092	79	21.2011919579823	15.4614308372132	76.9123206532566	2.24673472339353	121.707332207752	4.31929120671437	61	11.400519000208	82	0
27	C3-Cz	44232	44317	85	29.2901279324989	14.8074156308318	112.40341676114	4.32303048957431	121.707332207752	3.08737094682585	118	13.1033071448065	209	0
27	C3-Cz	75356	75409	53	17.9943744078464	8.63142782920794	64.1865896311615	4.34618509417352	68.4999869167562	4.16585148913388	133	5.57341371514376	156	0
27	C3-Cz	102035	102078	43	16.7757293739593	9.5028649950321	61.5437319017727	3.11640364886203	74.3150207892139	3.12432067646752	185	9.76806577158532	184	0
27	C3-Cz	127658	127716	58	27.0170138932197	16.2854628469772	109.275400790007	2.99450480481762	138.287089846285	7.80950020528527	83	9.43209780308067	126	0
27	C3-Cz	127966	128033	67	29.5809259908061	15.75106312038	138.287089846285	3.74825698231085	138.287089846285	6.87361153400008	125	14.8051582769214	136	0
27	C3-Cz	130452	130500	48	32.6786652489424	20.0449593934967	136.461157461301	4.57336521178494	171.310299432894	5.2140905242093	125	15.1162364228235	231	0
27	C3-Cz	130586	130805	219	27.5854506283747	21.5055403384094	135.934837559545	3.00888600874057	171.310299432894	3.28881104160982	168	11.0386682657098	223	0
27	C3-Cz	131031	131278	247	28.7656418797279	24.3453942167527	148.876105662965	2.1433992478508	171.310299432894	8.66619233282281	129	9.40056801927941	128	0
27	C3-Cz	131363	131978	615	28.3386233539268	22.0535898942221	164.035530533622	2.36705779126334	171.310299432894	8.46899160306068	148	10.3566647043462	147	0
27	C3-Cz	132121	132208	87	29.0939905539678	21.7248956209002	110.849178254997	3.45120901405141	171.310299432894	9.29301981529399	61	11.262072344619	99	0
27	C3-Cz	135890	136004	114	30.4417991107876	10.5078623892388	139.407131178644	8.39289670422807	139.407131178644	6.24749467568191	124	10.7351715728639	124	0
27	C3-Cz	192717	192783	66	15.3503288542238	10.3906140989782	52.1789480441677	2.18249338699618	74.2434670062519	4.10240968916589	144	4.74340497361344	143	0
27	C3-Cz	208898	209023	125	30.3662971118179	16.009747434502	134.824856383235	4.18946804477377	145.292879451857	3.50075069717195	190	11.0089827852302	237	0
27	C3-Cz	209102	209244	142	26.9542290389107	15.5634122314643	126.213966739912	3.69723065821783	145.292879451857	5.76451698356098	145	9.70540763146674	202	0
27	C3-Cz	245374	245432	58	15.2404067781458	6.58084250483997	56.1205644473568	5.36327570809707	62.0473295075993	2.42622126669072	160	7.02960159183936	165	0
27	C3-Cz	254990	255051	61	18.9534236193882	10.0280899597117	79.7888776181861	3.57222574699841	82.4505231157538	3.5504130070511	147	8.45207896945959	146	0
27	C3-Cz	264307	264363	56	14.7644385713422	20.1214991320095	46.7979731793282	0.63075459858789	158.630984979523	1.8626021425737	162	8.21013047675372	161	0
27	C3-Cz	264548	264647	99	32.5916587681783	19.2106955085199	158.630984979523	3.03779762061217	158.630984979523	2.24879397578062	137	14.0283489126444	208	0
27	C3-Cz	264846	264888	42	23.9763080936197	20.1267201802809	84.8964997106164	1.61607184768213	158.630984979523	1.57143793586914	120	12.6205607535757	230	0
27	C3-Cz	265002	265109	107	26.2387021259132	19.2999410979488	119.89435735771	2.05988333277787	158.630984979523	4.19636338099722	126	11.7768949807215	226	0
27	C3-Cz	285034	285074	40	14.6159664297468	8.57184775138781	47.3658616255309	2.90740930632948	63.401187876695	1.30660267032469	129	8.62831288826158	197	0
27	C3-Cz	307703	307754	51	16.8640165010658	8.06157524215106	61.7528101403054	4.37604937365227	103.065486715557	3.5817940877156	149	9.19452246168995	163	0
27	C3-Cz	330052	330108	56	20.7820111379779	10.1358108311372	74.0864004832464	4.20395591784663	81.9925079019924	2.41571465254973	201	10.7090797237138	235	0
27	C3-Cz	335028	335078	50	26.0819904178587	11.1748679983851	115.350744002089	5.44749271916271	115.350744002089	3.6776503950724	153	12.4534490348949	195	0
27	C3-Cz	340130	340186	56	18.1852890568448	9.11394659498059	78.559945256015	3.98132341757277	78.559945256015	1.24499293119584	140	9.65551552372245	198	0
27	C3-Cz	349739	349805	66	25.4731223021851	10.5074908960152	94.2198037339481	5.87714379592706	111.658741723373	7.48681107249539	136	10.6171460736216	135	0
27	C3-Cz	354927	355076	149	26.8049329566183	13.2827666510431	118.016855637019	4.07241815066061	122.604165424897	3.29426338510595	174	11.6322662122989	230	0
27	C3-Cz	365648	365695	47	18.7129754708268	10.0916467608041	64.7508739694764	3.43844130896818	92.3938687696816	2.09070196913436	165	7.22255059152208	195	0
27	C3-Cz	371151	371196	45	13.6306485040447	11.6324886378007	44.5338888767152	1.37305446078922	85.2319255208309	0.503260304244831	155	7.56081166361676	202	0
27	C3-Cz	376814	377095	281	20.1559658357408	14.9014627869874	87.8595431264181	1.82957164949061	147.942704825497	7.08535169535054	161	7.42371302179721	160	0
27	C3-Cz	381847	381900	53	29.330092301678	12.4803106821192	126.818568547302	5.52301300666495	126.818568547302	4.23002311279071	185	13.1293018738364	223	0
27	C3-Cz	396466	396511	45	18.0626441629021	8.91847043746784	61.6780810625887	4.10187005959742	72.029554139521	0.581369531744736	149	7.9814371410023	207	0
27	C3-Cz	401929	402002	73	15.2776355532806	14.6652457928156	58.5135055330075	1.27428500687326	135.065340753706	5.45881460916889	98	8.68722470617442	97	0
27	C3-Cz	402814	402869	55	36.3670430081416	15.5669719686936	135.065340753706	5.44996371756629	135.065340753706	7.28333136177237	165	14.3087654413146	164	0
27	C3-Cz	413486	413586	100	24.4854973598272	10.6740595801956	99.397477980288	5.26209415669669	99.397477980288	6.83228568009988	169	10.3156727799478	168	0
27	C3-Cz	417797	417864	67	22.1565823677933	14.7250249599382	99.4167513944397	2.44551817631356	130.152542651621	2.68429238050817	165	11.1222879571654	200	0
27	C3-Cz	417958	418085	127	17.1626638291245	15.5832791597569	68.699515026516	1.31238843945569	134.485506695943	1.59982650821744	143	7.05214019648407	300	0
27	C3-Cz	418249	418311	62	22.8209563858666	15.6752256544838	87.4311692748252	2.2351339756072	134.485506695943	3.03769498417302	124	7.88819374459097	141	0
27	C3-Cz	419579	419621	42	16.9021437258051	11.3394008202602	57.553861151867	2.22179183844814	122.359297817408	3.88894532768492	170	3.93336790514472	183	0
27	C3-Cz	422983	423067	84	18.7416195073798	14.1537570765248	71.2501770634026	2.4829744702763	119.808076398168	7.24762602987508	93	5.8916482090677	92	0
27	C3-Cz	423541	423599	58	28.9531051809486	17.6126832483602	111.743558877948	3.44320228210663	128.695362035568	1.99981640037508	144	13.211817216285	215	0
27	C3-Cz	423711	423852	141	26.096732925871	17.6819535401297	118.058417369531	2.74741606569104	128.90884312369	4.02433210706506	198	10.5179891583296	247	0
27	C3-Cz	424155	424232	77	22.2546185196658	17.4139471554868	82.4673864477018	2.31738154883486	128.90884312369	5.04835747439476	112	10.2424469682353	135	0
27	C3-Cz	424316	424377	61	20.3561394181945	17.3576189411135	79.883557922657	2.02293318752423	128.90884312369	7.12712567554003	112	7.78125599252604	148	0
27	C3-Cz	424456	424663	207	22.7716178438511	15.748063098526	120.004449037788	3.01304520834005	128.90884312369	4.08538784092392	120	8.951032543046	194	0
27	C3-Cz	427866	427920	54	25.4727766161001	12.9658096908912	102.483702075953	3.85969767637382	129.835265273523	7.66314773549761	138	9.73922708779815	179	0
27	C3-Cz	431956	432011	55	28.5252843461959	13.1351437158769	137.513938653884	4.71617928831509	168.86805716886	2.08758659173328	165	12.4322351428281	204	0
27	C3-Cz	437891	437936	45	16.3829613584519	9.30746171653679	54.6974080107175	3.09829165095381	67.5592900407114	1.84822439011225	139	9.03898060698515	219	0
27	C3-Cz	492207	492251	44	16.3086335581096	9.08679491967912	60.8222403096112	3.22117037374465	69.8481075374605	5.60795544583417	141	6.2968536862552	176	0
27	C3-Cz	515470	515544	74	20.7391411443497	9.15709960637876	89.7418636561204	5.12938925931882	91.8567908964194	2.63955564661257	150	9.65065737062543	218	0
27	C3-Cz	541395	541446	51	16.7332333587655	8.03558377976785	66.196158708503	4.33635539494467	66.196158708503	4.6763648275438	168	8.14400935461848	167	0
27	C3-Cz	562743	562803	60	20.8880098002287	9.66635900704491	84.4419753128235	4.66947746353721	84.4419753128235	1.54648269185002	133	10.7766103680833	207	0
27	C3-Cz	590927	590969	42	20.205321262421	9.73919030590394	69.7234741786927	4.30413431900935	77.2021042140941	7.1423449677189	158	9.76093584904498	187	0
27	C3-Cz	595587	595638	51	20.8795883213124	11.443458308827	75.9728840908794	3.32911869508391	85.5102566093964	5.00315955862479	175	9.22959273264808	174	0
28	T4-C4	136117	136171	54	3.45409838014734	2.16639597102103	11.8174888770034	2.54210642010782	16.1446849477836	0.690784310889047	327	1.65675427527701	195	0
28	T4-C4	227653	227714	61	4.29629901256527	2.01184383506826	14.7971451392263	4.56037405493909	14.7971451392263	1.21908561372685	82	1.37165821786231	102	1
28	T4-C4	290400	290470	70	5.27746011419476	2.09331080690504	18.4488790583381	6.35597950758773	18.4488790583381	0.777498703521112	83	0.352394035495805	82	1
28	T4-C4	385336	385402	66	9.22509872061253	2.92384247324052	49.1592866032201	21.9907636995269	60.2081302940483	2.58739954321106	83	2.19782987088845	82	0
28	T4-C4	385522	385594	72	11.4917350556295	2.59284482245632	60.2081302940483	32.9645805307447	60.2081302940483	1.1948726308394	NaN	9.96651938880815	300	0
29	C4-Cz	18480	18538	58	20.9744761012202	13.7139894533786	84.4081958781597	2.36304698504844	113.449748366471	5.26624900069859	178	10.5617222370548	186	0
29	C4-Cz	19215	19255	40	16.7038957890224	12.1979167835499	56.5878166689968	1.99386268248782	113.449748366471	4.66812845545533	159	5.06366635529704	187	0
29	C4-Cz	39280	39326	46	17.8796248317071	14.4290510443995	57.9495399179823	1.67982502130631	130.398619389968	4.88837071184209	61	8.38500205925232	84	0
29	C4-Cz	39878	39946	68	26.6251238059395	14.9938009897814	129.610071353147	3.18561043536101	130.398619389968	5.90653216254545	147	13.0404193468167	147	0
29	C4-Cz	42119	42202	83	33.7300712545811	15.7836366475139	134.251998234345	4.56688807623777	148.816766814984	3.66426617482412	141	17.0227674172321	140	0
29	C4-Cz	43355	43430	75	22.0627392102308	18.9669558043661	89.9113797683448	1.47382822378347	144.249232698065	5.70535337402352	164	12.1852501996209	189	0
29	C4-Cz	44014	44092	78	21.4290695367433	15.7842925383781	81.6646623974601	2.18425591044382	125.127645326384	4.40471819812255	61	11.283051103592	82	0
29	C4-Cz	44251	44317	66	32.5276014276042	15.1913471489745	118.165723422192	5.0275030328566	125.127645326384	2.20212323588368	120	13.2570907327871	206	0
29	C4-Cz	75356	75410	54	18.7168415067618	8.6753032531288	66.6510715417948	4.65474394634131	71.5486413043702	4.35508386692379	134	5.3332372667191	159	0
29	C4-Cz	90958	90998	40	16.9076762591236	9.28445126482525	56.492517016435	3.31631186940157	90.419762171753	1.24873428400052	147	8.53002887472925	199	0
29	C4-Cz	127966	128033	67	29.9130369908044	15.7591104229319	140.288408853624	3.60294488643167	140.288408853624	7.12333012001956	127	14.8611584544482	137	0
29	C4-Cz	130418	130500	82	28.4757561704862	19.9264561652713	130.270429264714	3.57678926773079	170.425647465254	5.12791264434342	158	13.2171072574915	221	0
29	C4-Cz	130586	130804	218	28.1852981711469	21.5283895137486	139.979781183364	3.1660341319705	170.425647465254	3.29290397916715	237	11.279614329275	254	0
29	C4-Cz	131068	131277	209	29.5300695837355	24.5719833375886	145.781949323265	2.21001302491316	170.425647465254	9.59398528688542	126	9.76726929932915	125	0
29	C4-Cz	131363	131980	617	28.5513932035521	22.0576503367577	164.895497523408	2.38958766370334	170.425647465254	8.25546900316844	155	10.2642056298447	154	0
29	C4-Cz	132121	132208	87	28.4208649634619	21.843604295929	108.144513194541	3.24360274643318	170.425647465254	8.9743374035614	61	10.8820107430633	99	0
29	C4-Cz	135603	135674	71	15.7870522338727	12.0282926711644	63.4550662634458	2.54131504803493	139.168630772546	0.676200056541785	103	8.50977823248689	193	0
29	C4-Cz	135891	136004	113	30.2615026697265	10.7621037186153	139.168630772546	8.26192429834556	139.168630772546	6.02456820259563	125	10.4935662036612	124	0
29	C4-Cz	208898	209023	125	30.2681340763865	15.9316499778216	131.226289566622	4.17789391045548	143.354423488318	3.11511831486278	189	10.8472641055927	238	0
29	C4-Cz	209103	209244	141	26.5636034323346	15.5380095202184	120.775760979607	3.59895848543214	143.354423488318	5.61145341615971	150	9.93255028651787	201	0
29	C4-Cz	245373	245434	61	15.6398368577271	6.62305261701455	55.3673719498273	5.57632434507302	60.6320707051684	2.44123872946432	164	7.26576820038248	166	0
29	C4-Cz	254990	255052	62	19.0678300845314	10.0633601263213	78.3346469392058	3.59018243078436	81.2140447981731	3.3902631068391	150	8.71373996007503	149	0
29	C4-Cz	264308	264361	53	15.7163633533953	20.1461841923707	51.5326827437373	0.65317432929727	156.602035485008	1.84896626807372	162	8.74845593160996	161	0
29	C4-Cz	264594	264646	52	25.18451764374	20.1434296529772	94.4241075608811	1.62821457740672	156.602035485008	1.19352261397357	143	13.5112762271815	204	0
29	C4-Cz	264846	264889	43	24.0554840206327	20.1944950422653	83.0090673645493	1.48662968380538	156.602035485008	1.68749897528808	123	12.6672785363099	230	0
29	C4-Cz	265003	265109	106	26.2065699613099	19.3817702655381	116.87133331578	1.8704986594865	156.602035485008	3.95374517253737	126	11.6833515751531	229	0
29	C4-Cz	307703	307754	51	16.5184943644787	8.27756048950249	56.5267851441782	3.98232034757589	108.194320756782	3.56504108973734	147	9.29182728666802	164	0
29	C4-Cz	330051	330107	56	20.0722565093782	10.2761655749125	70.6104315063734	3.81531333256538	82.2873270412699	1.89122465182624	198	10.2424871003622	232	0
29	C4-Cz	335028	335078	50	27.1608644739736	11.3762813814679	121.410650435438	5.70015317575846	121.410650435438	3.58756329247802	153	13.0951326997114	196	0
29	C4-Cz	340131	340174	43	20.0780213102391	9.32649560780866	81.3026831781448	4.63452086372112	81.3026831781448	1.24969325328171	143	10.5540496326054	196	0
29	C4-Cz	349739	349804	65	25.9216506417733	10.534572794935	95.8413097148368	6.05468354628321	112.158001660843	7.50742336503629	135	10.3967116811023	134	0
29	C4-Cz	354926	355076	150	27.3012871871869	13.1992387225227	120.708718436504	4.27827286014083	125.887119475548	3.22442993538157	175	11.6735491886152	229	0
29	C4-Cz	376814	376958	144	22.6368024443431	15.4758859963565	89.3765417953931	2.13953363235431	148.198396154995	6.6592902614925	164	11.0070858802807	163	0
29	C4-Cz	381846	381898	52	29.6503414310643	12.6165419344295	126.274240169173	5.90835935019575	126.274240169173	4.40321668858485	166	13.0205216562559	228	0
29	C4-Cz	381997	382051	54	22.9407199625356	12.2476608669772	98.2704405566335	4.04339623154296	126.274240169173	3.72966890989587	141	11.2818262702442	192	0
29	C4-Cz	396466	396512	46	17.2221840291487	9.03148208846524	57.0375787646183	3.63628907640926	74.9890280872003	0.575581898086508	153	7.69471563842068	204	0
29	C4-Cz	402813	402869	56	34.5492100996517	15.6132539301481	128.754889040946	4.89654104153257	128.754889040946	8.27921714311729	139	13.3128397709451	138	0
29	C4-Cz	413486	413586	100	24.472961902056	10.7950452053142	97.8707351933421	5.1395386645687	97.8707351933421	5.80333429404152	190	10.4680419027841	189	0
29	C4-Cz	417798	417863	65	23.1886963909194	14.6368128496357	107.574604467265	2.68498502362271	130.235992269371	2.02685536946371	155	11.0981763967179	201	0
29	C4-Cz	417958	418004	46	18.9747818797801	15.6700695082982	68.5297858158265	1.59425155485198	137.598415144346	0.896159005136976	153	8.80989834043429	256	0
29	C4-Cz	418250	418311	61	23.016286230849	15.6662126907911	89.6398448339594	2.27993833239502	137.598415144346	2.82480865702407	122	7.76248723151489	141	0
29	C4-Cz	419579	419621	42	16.2507363840208	11.4041160610516	56.3615887447715	2.03059276102372	123.842915269579	3.72156362559628	184	7.75087708403374	183	0
29	C4-Cz	422981	423067	86	19.3318705498874	14.3839162810321	73.6579228115004	2.52871563785738	120.124136608362	7.78020363843026	93	5.91577804627617	92	0
29	C4-Cz	423541	423600	59	29.3057351722193	17.884363049991	113.586397260935	3.35137338545397	130.520238087844	3.10533398307093	142	13.6765718808376	213	0
29	C4-Cz	423712	423852	140	26.1458887442549	17.9605912071344	113.863889926924	2.64990003867153	130.520238087844	3.95492079086547	199	10.7176062723425	247	0
29	C4-Cz	424155	424232	77	22.1494745613077	17.5994698185845	81.4339545663556	2.21815748636594	130.520238087844	5.13152474814038	113	10.2233110658066	135	0
29	C4-Cz	424316	424377	61	20.217807155186	17.5258161178538	77.7627117637255	1.93032486716301	130.520238087844	7.09413285615134	150	6.86197759247203	149	0
29	C4-Cz	424456	424630	174	23.9937178847562	16.0276192293662	119.550657096833	3.16000649921947	130.520238087844	6.50856283307798	61	8.57476014846431	87	0
29	C4-Cz	427866	427919	53	26.3857086589014	12.877929569944	107.04308673244	4.19802900088017	130.635876983365	7.92402116923148	138	9.75326128215021	179	0
29	C4-Cz	431956	432011	55	28.3463343705735	13.0509670577028	134.66107441317	4.71746215187606	165.009191596249	1.63433472644695	168	12.5495129892192	204	0
29	C4-Cz	437891	437936	45	16.4951150016422	9.34887389179496	54.6397864140196	3.11309298152312	63.9639111026719	1.98219091138034	206	9.10247483478463	218	0
29	C4-Cz	515471	515544	73	20.2258279561578	9.23890759462273	86.8684166665464	4.79260206626239	91.8185618026564	2.67533230395872	147	9.52378571359484	216	0
29	C4-Cz	562760	562806	46	22.617140629615	9.88813713146415	86.3573089972767	5.23174340369564	86.3573089972767	1.63683891204505	127	12.8246118091018	213	0
29	C4-Cz	567976	568026	50	18.0900798238618	8.06987353568139	63.9846424768894	5.02513239824445	68.4664298705002	4.38393583913931	178	9.51658661820294	177	0
30	T5-P3	158068	158108	40	9.65940247998659	6.52513780116594	31.9560908837386	2.19139743520668	40.1474085130297	0.741822693136383	191	5.52828530017924	201	0
30	T5-P3	476228	476271	43	8.75012338823357	5.80784450007367	25.729936660843	2.26985646006724	36.09524406237	0.629374588459661	147	5.19381982246978	204	0
32	T6-P4	9935	10025	90	4.4672297778137	1.50539580368018	15.2278034629211	8.80592902802502	15.2278034629211	0.894069862037323	89	0.610998445295287	88	1
32	T6-P4	19271	19339	68	4.87033114277566	2.14176714759757	18.5481577258465	5.17097545187543	18.5481577258465	0.992291830253921	86	0.547158945174884	85	1
32	T6-P4	33173	33378	205	4.66589885174465	2.01499302185455	19.488505477719	5.36195971481537	19.488505477719	1.05569349081717	83	0.690552132245736	82	1
32	T6-P4	43255	43357	102	4.69904005084264	2.25284459233664	18.3535687020562	4.35066681766101	21.0802005990236	0.709564661839961	105	3.30271288388698	104	1
32	T6-P4	47775	47947	172	5.04941632588477	1.72394667958641	19.9498231416473	8.57896115146427	19.9498231416473	0.741088409786624	83	3.29235957996082	82	1
32	T6-P4	50598	50685	87	4.00863856709249	1.9189266892199	12.7796426564676	4.36392255306522	15.4750893577346	0.351252115723529	83	0.568383260364295	106	1
32	T6-P4	53107	53254	147	5.55700679544518	2.11497315582706	20.5668754480777	6.90354462899148	20.5668754480777	0.799859780019733	83	3.37135541494703	82	1
32	T6-P4	101142	101261	119	5.87444632436859	1.84068768723645	26.0381696273342	10.1852962498915	26.0381696273342	0.730050103952313	105	0.621298902887	104	1
32	T6-P4	103428	103572	144	4.2877579008315	2.10605616953634	17.2929941528814	4.14496255951038	17.9937060553933	0.487844165619174	83	3.40249669880009	82	1
32	T6-P4	168121	168240	119	7.60765742781435	1.82589626380009	49.1251790440133	17.3599990205026	49.1251790440133	1.32818052763397	83	1.4598213749323	82	0
32	T6-P4	176887	176983	96	14.6513485328242	2.01805509998868	94.5799920861208	52.7095319373423	94.5799920861208	1.41630378048276	NaN	7.37958706899466	300	0
32	T6-P4	181177	181259	82	9.19011464510488	1.97189931799635	37.1220310469573	26.5861654438594	37.1220310469573	1.70345487785429	83	5.067757208464	82	1
32	T6-P4	181464	181559	95	4.24288427949218	2.57681806978777	16.3625035411804	5.50402379924509	37.1220310469573	0.614689203198901	83	0.5302715666225	82	1
32	T6-P4	188023	188180	157	4.56498387934318	2.36935244939205	18.622701310124	4.77782420504697	20.3819639938639	0.802412811830607	112	0.827044830605994	111	1
32	T6-P4	188291	188389	98	5.4459815659308	2.36865307381928	20.3819639938639	6.89053740200875	20.3819639938639	0.570341869592061	83	0.661066401640294	82	1
32	T6-P4	236260	236352	92	6.08516215051003	2.49879960159522	20.9867071646034	5.9303654173658	21.7403055405525	0.567962534899851	107	0.478032941214145	106	1
32	T6-P4	278254	278379	125	4.52157366097799	2.2294146819822	17.4727514208626	4.11336744830268	19.0832162319909	0.657607128350878	72	0.708512455369287	82	1
32	T6-P4	288014	288111	97	3.96999569906518	1.85496281332552	12.7285381181155	4.58046593008716	16.1127985261844	0.23233205099672	NaN	4.00567214235778	300	1
32	T6-P4	290815	290926	111	5.32634556888042	2.08384506623546	22.6724629675472	6.53322818895733	22.6724629675472	0.60137728195785	83	0.566777789608224	82	1
32	T6-P4	301372	301461	89	4.13636533767207	1.64081020984976	14.7806677897682	6.35508086030937	14.7806677897682	0.741677032111353	83	0.527355296363711	82	1
32	T6-P4	318138	318210	72	4.9514936365446	2.24573680488875	16.1828479589614	4.86132590473046	19.7364761256846	0.581760119561879	101	0.632961280843919	100	1
32	T6-P4	335017	335083	66	5.42900952776606	1.91823596525394	22.6322176693006	8.01008544698996	22.6322176693006	0.657868452340387	113	3.18599025085256	112	1
32	T6-P4	343157	343363	206	5.06586710154795	2.26194575869194	21.3859413278754	5.01583465642843	21.3859413278754	0.497651542560292	104	3.6381248337621	103	1
32	T6-P4	351135	351231	96	3.99977963048009	2.2720321135973	14.5524467342632	3.09915428789401	17.3350631870917	0.300274311212705	98	0.407410927225135	104	0
32	T6-P4	383075	383193	118	4.33403613335309	1.64999433131262	16.7059427228953	6.89954022861316	17.9338009281251	0.434940155653998	85	0.537519927588135	84	1
32	T6-P4	406208	406304	96	5.84870786099968	2.31392873906619	20.6990076469075	6.38880890583594	20.6990076469075	0.535180443658327	88	0.879976758225584	107	1
32	T6-P4	410558	410648	90	4.70886415949521	2.42488382877195	16.5591110887991	4.64604811080332	17.6804244680234	0.273563398561339	90	0.338416749313504	102	1
32	T6-P4	410849	410931	82	5.60892588172175	2.59076846922785	17.6804244680234	5.265230418973	17.6804244680234	0.672054356790167	108	0.746607362926393	107	1
32	T6-P4	420944	421037	93	6.0676896307063	2.09855250569361	23.6065075146469	8.36001461389487	23.6065075146469	0.441376389871317	NaN	5.14384913248305	300	1
32	T6-P4	427766	427864	98	4.89763139988503	1.90536451606468	16.4403198633759	6.60717861149165	18.7737476618924	0.570192428734439	77	0.672679656640577	85	1
32	T6-P4	441563	441629	66	4.03723949988061	1.77527186607893	14.2897456950525	5.17177099586062	14.3278408739869	0.675660107943433	83	0.655208391840478	82	1
32	T6-P4	442874	442944	70	3.98037986939815	2.27665405936462	13.8060676309606	3.05671504325722	28.3633556184382	0.340855967486545	83	0.44566966459179	82	0
32	T6-P4	480338	480401	63	5.46882275257539	2.01110972354956	17.8131297243112	7.39462516130442	17.8131297243112	0.492847519307192	95	0.478493492452059	94	1
32	T6-P4	490011	490080	69	5.74279351772018	2.3001606193188	22.4965596514323	6.23347289829282	22.4965596514323	0.611939988309468	112	3.42807623497917	111	1
32	T6-P4	520569	520639	70	4.086289591315	2.14619792893473	13.2409088975294	3.62508955491099	21.9212575359909	0.543787845037011	86	0.634930101151969	100	0
32	T6-P4	541285	541362	77	4.59042192788463	1.83659933101349	16.8155955693292	6.24706992848413	16.8155955693292	0.568295714928412	87	0.501223398036693	86	1
32	T6-P4	552632	552719	87	4.49154053673797	1.82783778440004	16.4520164905481	6.03830917173289	16.4520164905481	0.756903437077624	77	0.798700419816311	82	1
32	T6-P4	559264	559424	160	7.94185223144992	2.59577329405803	30.8254344373705	11.5083681425648	30.8254344373705	1.00545020342933	83	4.74120556668965	82	1
32	T6-P4	560124	560218	94	5.65265924661199	3.18734185763593	23.0271712104247	5.78152381037398	30.8254344373705	1.02996194614832	83	3.44313909444588	82	1
32	T6-P4	567904	567984	80	4.08529427976441	1.68450920834277	14.0729298912046	5.88165996432588	14.0729298912046	0.220700750761987	111	2.466359154486	115	1
32	T6-P4	577950	578013	63	4.62392820437165	1.71221743136424	18.5127532655799	7.29296847323898	18.5127532655799	1.2512228186101	83	3.26308981065458	82	1
32	T6-P4	592023	592128	105	4.24169321865309	1.80614752100593	13.8606843359051	5.51533721618974	15.4379616351126	0.629078855669858	83	0.392314063317232	82	1
33	P4-Pz	176883	176989	106	14.1125497396072	1.62528078910149	95.5960559581756	75.3970175851256	95.5960559581756	1.44278699675928	NaN	6.93259701971746	300	0
33	P4-Pz	317886	317959	73	3.49154653930815	1.55925995142038	12.6753108897154	5.01416500418645	12.6753108897154	0.237960324546287	NaN	2.51008985221696	300	1
34	Pz-O1	19367	19451	84	3.9324012106147	1.65319274574022	13.3321285481054	5.65807448571256	13.8131891127422	0.45538297078164	85	0.376665424068007	84	1
34	Pz-O1	181395	181474	79	4.16128464349671	1.66125621790852	15.3184613503166	6.27453590156817	15.3184613503166	0.473784254392044	118	0.654812332734495	117	1
34	Pz-O1	213627	213715	88	4.30302860944244	1.57933731591605	16.4614401449619	7.42332839685634	16.4614401449619	0.475283744076238	83	2.53490627059771	82	1
34	Pz-O1	368747	368811	64	4.30162267930037	1.82201357332538	14.062557045655	5.57392871756896	14.062557045655	0.447364198884237	88	0.690789089124132	115	1
35	Pz-O2	19324	19416	92	3.58980933026455	1.36165702818674	12.3704950341046	6.9503600023472	12.3704950341046	0.29370248382246	106	0.33428773317172	105	1
35	Pz-O2	314869	314927	58	3.1371226407695	1.385511768443	11.6045251524313	5.12675491142958	11.6045251524313	0.69113252070921	109	0.711100107995348	120	1
35	Pz-O2	599957	600002	45	12.4884973642583	1.44988763970204	52.426856269043	74.1910774135425	52.426856269043	1.06576145775538	83	1.1983630660382	82	0
38	C3-Fz	472085	472127	42	2.34240816548957	1.50384796763399	6.9073330304687	2.42614794392935	10.3093216574518	0.0853015651911111	133	1.29180297648717	214	0
40	C4-Fz	93587	93652	65	8.26183428486112	1.65615808079444	45.5840773444014	24.885672615063	45.5840773444014	1.24347099751005	NaN	4.61942580164008	300	0
41	T5-C3	196596	196677	81	4.07882880624954	1.83601292061559	15.8422767992549	4.93536741383467	15.8422767992549	0.573167484560881	113	0.499580563400531	112	1
43	T6-C4	50540	50681	141	4.86115860235813	1.92473900470767	18.941375141641	6.37875448773257	18.941375141641	0.470275147059697	83	3.24311736305385	82	1
43	T6-C4	53078	53253	175	5.80061644164231	2.18525934944765	21.3994872405124	7.04599489987867	21.3994872405124	0.683882137164017	83	0.679753017239416	82	1
43	T6-C4	101128	101257	129	5.48214528255966	1.94754694589289	23.1148405130125	7.92364866810817	23.1148405130125	0.831019707356276	104	3.95741815892782	103	1
43	T6-C4	168134	168224	90	8.31583384137542	2.15622545984148	48.354257474382	14.8738455275095	48.354257474382	2.08381905823729	83	1.31777525611922	82	0
43	T6-C4	181170	181258	88	9.50579731063707	2.32363628425533	38.5895917235865	19.6265017323212	38.5895917235865	0.903428065633696	112	5.67682178502621	111	0
43	T6-C4	181452	181552	100	4.51136909125229	2.89011001693172	18.2733619506014	4.48939955215415	38.5895917235865	0.53018452753593	87	0.673825250981383	86	1
43	T6-C4	290829	290917	88	5.56018323208107	2.40814011214808	23.0403030648012	5.33107391320241	23.0403030648012	0.923724233909185	83	0.654333442633612	82	1
43	T6-C4	318124	318209	85	4.45889056801678	2.37460108864369	16.0762701436381	3.5259187677604	17.7651149003576	0.433378990684728	99	4.83197089437572	98	0
43	T6-C4	343209	343293	84	6.23535491842032	2.68469001834846	22.4703702516854	5.8375538557671	22.4703702516854	0.384472027394832	NaN	4.05998364988697	300	1
43	T6-C4	343540	343606	66	4.79556743635993	2.7832105460091	15.2229811429333	3.61347613423555	22.4703702516854	0.705777955573842	83	0.495402648421015	82	0
43	T6-C4	402399	402479	80	4.53590357371018	2.01303358342566	16.3289438646627	5.07721537523797	16.3289438646627	0.563773572354258	83	2.61602564033135	82	1
43	T6-C4	406210	406304	94	6.44526737105219	2.32911064733524	21.9140990428928	7.65775794590229	22.3230750177483	0.465763197717231	NaN	4.06582690721991	300	1
43	T6-C4	410853	410931	78	5.86377458595041	2.69752047262169	20.4488783372752	4.72525265675059	20.4488783372752	1.03340114271575	83	0.67719722050951	105	1
43	T6-C4	442983	443050	67	3.89350365615587	2.51101988214108	12.1117922978252	2.40425689832684	24.8526606443022	0.462814144621816	99	0.511115536223425	116	0
43	T6-C4	490017	490090	73	4.27317936530455	2.34804573196448	15.2181074358139	3.31199095951837	22.4280256396028	0.447851216763959	108	0.471017874739173	109	0
43	T6-C4	520391	520480	89	5.84896239348961	1.89004269908531	25.0707686127731	9.57666788848291	25.0707686127731	0.942732566737151	83	3.34413345967988	82	1
43	T6-C4	531892	531964	72	5.11904714326009	2.2201018775159	19.0705158361005	5.31658118613828	19.0705158361005	0.408951506671892	105	0.530949250314098	104	1
43	T6-C4	557386	557488	102	4.43038824822511	1.86231032514349	16.1966452288207	5.6595183268264	16.1966452288207	0.670921601679796	108	2.75498990046199	107	1
43	T6-C4	559190	559421	231	6.09189677333177	2.99253071385836	29.5290042899211	5.07141750954298	29.5290042899211	0.953012123396022	83	0.498178233802411	82	1
43	T6-C4	560137	560208	71	7.26666538947639	3.21662333011334	27.5954570762839	7.72607126190097	29.5290042899211	1.47051296683863	83	0.85605281697342	82	1
43	T6-C4	592049	592124	75	4.77073041225643	2.05818431042773	18.0409532901211	5.37280681329009	18.0409532901211	0.714770983350003	83	0.778260944643206	82	1
45	T3-P3	148467	148522	55	11.4632427834968	5.89610800703346	43.7859163675426	3.77993315831605	45.0115389675433	2.45355327746223	163	5.99009216605793	162	0
46	P3-Cz	42131	42199	68	35.0566486189949	17.2929615167531	127.871499640324	4.21133586972153	154.368693565074	4.47159295956416	139	17.4927845136392	138	0
46	P3-Cz	42658	42707	49	24.0982818539884	19.1581737833299	92.6991578956846	1.73843723620498	154.368693565074	3.11729587657729	218	12.6381954687657	221	0
46	P3-Cz	43356	43403	47	20.5415464193473	20.1426547577733	64.7074393341218	1.08413653440753	154.368693565074	2.57368825848072	183	11.8886284763018	192	0
46	P3-Cz	44048	44153	105	24.7089263871372	16.2545904076232	88.0938638096679	2.34519471646152	141.282252544562	8.25422229417546	83	5.82679199883508	82	0
46	P3-Cz	130588	130641	53	34.9637152445742	21.9625375847017	120.985525855468	3.32373438530032	164.330002886644	7.62755155563324	147	8.49759926819277	153	0
46	P3-Cz	130762	130802	40	33.9502137336573	23.2519622878883	132.721736949649	2.6767394324383	164.330002886644	1.90221855299493	173	19.452215612483	239	0
46	P3-Cz	131067	131275	208	31.9238551871616	24.5999797765323	161.78003652577	1.96330278702648	164.330002886644	9.92303841813881	189	10.1676757438892	188	0
46	P3-Cz	131517	131619	102	30.9536991062425	24.8207313211897	132.031972989465	1.9366784048909	164.330002886644	5.54428107355203	181	13.4068640826571	180	0
46	P3-Cz	131806	131873	67	32.9843949553574	23.2195822110166	123.260047268734	2.49932351530351	164.330002886644	4.26422256579852	160	15.0587956503781	164	0
46	P3-Cz	132121	132210	89	28.0857617772222	21.9407451031244	97.8244406061643	2.08910726290755	164.330002886644	9.1869409776854	61	11.9809547509031	99	0
46	P3-Cz	135891	136004	113	31.1778316718556	11.8830408752752	134.580744819762	6.88393298662974	134.580744819762	5.67924544771852	NaN	14.4508484023291	300	0
46	P3-Cz	208900	208979	79	28.8819943427497	17.5859693685429	126.188943629156	2.83895422087224	150.041123131081	5.29358094994368	163	12.8328295599241	162	0
46	P3-Cz	209195	209243	48	30.3955314278849	17.1004497032501	122.481462391371	3.4236763831916	150.041123131081	2.84091300426397	153	12.5892662191821	214	0
46	P3-Cz	264594	264645	51	24.0218438497737	20.9508799814913	82.1253044806535	1.37718044429655	160.515380447665	2.36506842436479	146	12.8647238533418	204	0
46	P3-Cz	264846	264888	42	28.5214605496964	20.8711930817413	111.064998695038	1.93638741880427	160.515380447665	2.01848983170775	133	15.1823296184413	228	0
46	P3-Cz	265004	265046	42	30.848072633751	20.5792050356869	113.975978776228	2.31810117966113	160.515380447665	8.99683971923262	188	14.426671803996	187	0
46	P3-Cz	335030	335076	46	30.6207374756224	12.8385117319359	106.849403759953	5.68855455745235	106.849403759953	3.22638954562547	139	15.8365812671265	196	0
46	P3-Cz	349745	349835	90	25.5786834913948	11.4078456944944	107.736019731277	5.02746550811683	118.948738609588	5.07352041827898	154	10.4614308167188	183	0
46	P3-Cz	354927	355011	84	31.3147741997432	14.6740534534349	129.706019822828	4.55405609200238	129.706019822828	2.11458685072129	180	13.9507066003563	238	0
46	P3-Cz	365647	365696	49	21.7880012239907	11.7837422099044	74.3435106865633	3.41875765434788	103.937463424102	1.85546839161058	105	9.61635652312193	199	0
46	P3-Cz	402815	402868	53	33.9007519579249	16.7286862176169	126.295576759777	4.10671904910129	126.835861147912	7.76538272737801	138	13.0592722228753	137	0
46	P3-Cz	419580	419623	43	20.2680436482701	12.6037262731733	63.7190832820504	2.58598342270734	122.301831015978	4.97234193591627	179	5.8206374584001	178	0
46	P3-Cz	423541	423600	59	31.8398060499415	17.6439744309177	122.656353347094	3.42825345666665	124.17932242642	2.77969610015983	150	14.8267388972582	210	0
46	P3-Cz	424078	424124	46	26.4746398759278	17.754572557005	109.743356963638	2.4412685999459	124.17932242642	2.7784059172803	160	9.67677966936195	200	0
46	P3-Cz	424543	424598	55	22.6434883851206	17.0452617862198	85.3604383926073	1.99260083387817	124.17932242642	5.4475964572456	87	10.8864495058441	86	0
46	P3-Cz	515470	515519	49	24.7024266514276	10.755715023445	94.1940244779546	5.27473520932487	97.211924149242	3.03892825568775	102	12.492763176881	198	0
46	P3-Cz	520466	520513	47	20.1681742972609	10.4602125278333	60.2544593642155	3.71751008084254	65.0045072500435	3.39528968334956	180	10.8958738144675	179	0
46	P3-Cz	590929	590970	41	22.3965289052777	11.7589820932318	72.1416583222114	3.62762154035957	80.3058076535386	7.44163812726778	155	11.7309571472604	182	0
46	P3-Cz	595587	595636	49	22.3330338703285	12.5287240976759	87.9770259604368	3.17747218986002	99.6239014316634	6.21814599075614	172	7.40313551895813	171	0
47	T4-P4	176886	176971	85	16.0152679970315	2.03499019474273	97.0262655639533	61.9360891327783	97.0262655639533	1.64039578309262	NaN	7.66230747836592	300	0
47	T4-P4	290401	290475	74	4.7298510851462	1.92214418209898	16.170835693102	6.05512359609856	17.9318378870666	0.700090791616925	83	0.769855771449068	82	1
47	T4-P4	385337	385389	52	9.45906298555303	3.027936481183	45.3333242207349	23.4278901845668	60.7236901642022	1.24525751228434	NaN	8.90931782076149	300	0
47	T4-P4	385493	385628	135	9.08212654770267	2.42371296095344	60.7236901642022	22.9208326700461	60.7236901642022	1.00251240477193	NaN	7.58595128787584	300	0
47	T4-P4	559378	559450	72	4.04251722352825	2.09843501758397	12.5637986442228	3.71118588751818	13.6614489798425	0.857279362735234	83	2.37347187706299	82	0
48	P4-Cz	8870	8918	48	20.334266512744	10.4567245069933	75.7153946568014	3.90194984807276	79.5078589312084	5.58881951848882	182	10.5638116585659	181	0
48	P4-Cz	9066	9124	58	14.8449624737879	10.5318429200611	52.6923135347184	2.13290069919277	79.5078589312084	4.24515963051898	145	8.25080188027292	180	0
48	P4-Cz	13824	13909	85	16.6167267226605	8.72994428616958	58.036844430374	3.6229973047056	74.0776315665201	4.50952170114733	146	6.34534289023944	145	0
48	P4-Cz	18477	18538	61	20.3630164795583	13.5378030990428	76.6453302036101	2.26249609898854	111.352737537819	5.30537872957053	176	10.4813920020695	186	0
48	P4-Cz	39281	39326	45	17.8499181410414	14.4880733209201	57.3231266522605	1.66396599278634	134.29963041794	4.60208749308705	61	8.42628956887555	84	0
48	P4-Cz	39877	39945	68	26.9343665628694	15.0155898369495	132.961167654978	3.24917728969142	134.29963041794	6.20413578928369	147	12.8073338522626	148	0
48	P4-Cz	42120	42202	82	33.2199804024709	15.7264569366126	133.008100419257	5.06347712398087	151.278308688881	3.50785008922206	141	16.6790370229633	140	0
48	P4-Cz	42497	42558	61	34.139794643293	17.0258222127875	137.087598355284	4.72682651442901	151.278308688881	5.51591040911817	82	13.2296787572827	106	0
48	P4-Cz	43353	43432	79	20.9760763762919	18.9271586114497	83.8186191433847	1.47328253487364	149.951446513239	5.34948932420185	165	11.7463476823121	188	0
48	P4-Cz	44013	44093	80	21.3289432730947	15.6829196620392	80.3865870310424	2.20520172182012	124.302601294531	4.5952047810096	61	11.2471192518842	82	0
48	P4-Cz	44233	44317	84	30.3228722931862	14.9967085140125	116.124622153832	4.47623918346899	124.302601294531	3.41845213415739	121	13.515331487792	208	0
48	P4-Cz	75356	75410	54	18.0361301428111	8.6517430402841	66.16029708534	4.34589767158595	71.9594938067656	4.17021831382059	134	5.58067448535808	158	0
48	P4-Cz	90959	91000	41	17.1613662187486	9.31146977805419	57.1538518421641	3.39677861149345	91.954847371167	1.98709697480867	147	8.88590321623455	199	0
48	P4-Cz	102036	102077	41	16.391589461786	9.53581638020995	59.3208069841584	2.95478834360366	73.2646473516023	2.93160610664932	186	9.64400508845447	185	0
48	P4-Cz	127965	128034	69	29.3526392718425	15.7407254542639	140.163248877547	3.47732134543907	140.163248877547	7.00135249732741	126	14.5367650794644	137	0
48	P4-Cz	130418	130500	82	28.8108206030857	19.9221266958773	132.957489868549	3.76282921064437	169.908907279023	5.37737923803078	160	13.1250860145243	222	0
48	P4-Cz	130586	130805	219	27.9290656214823	21.5334252683202	137.56658269957	2.67890840366562	169.908907279023	3.2675435030613	168	11.0432141934746	223	0
48	P4-Cz	131031	131278	247	28.5734231642804	24.393843266265	150.905608193136	1.9241565115616	169.908907279023	8.60415569857287	129	9.41574268743474	128	0
48	P4-Cz	131363	131619	256	29.4449054051223	24.5776743982717	135.567400499971	1.90245166846629	169.908907279023	8.83432832690973	147	10.5095152633458	146	0
48	P4-Cz	131715	131977	262	26.8300673859732	22.8228113036859	129.488674394744	2.05118474318993	169.908907279023	7.44360171054695	157	9.94275068132213	180	0
48	P4-Cz	132121	132207	86	29.3565161310988	21.7244906754754	113.43339134001	2.94291604963062	169.908907279023	9.17049818802561	61	11.0510491416463	99	0
48	P4-Cz	135890	136004	114	29.7864981054802	10.4401679463059	136.249311122898	8.13999101321647	136.249311122898	6.33465918223646	124	10.4618978301233	124	0
48	P4-Cz	192718	192783	65	14.7963097492656	10.4288327838948	50.2304898081973	2.01296127764536	72.6415054761602	3.98689770189712	145	4.37927344776468	144	0
48	P4-Cz	208898	209023	125	30.4769659678623	15.9312456226348	134.978661173753	4.24050080258428	145.436044117997	3.63598231605145	186	10.9481631311378	238	0
48	P4-Cz	209102	209244	142	26.5563389917669	15.565058277035	122.18319181954	3.5961659720389	145.436044117997	5.29506018035234	145	9.60354922431696	201	0
48	P4-Cz	245373	245427	54	16.293507878939	6.8049637309418	58.1904052743691	5.73294216065585	63.8706944636674	2.65459497775054	163	7.46224743712774	165	0
48	P4-Cz	254991	255052	61	19.1011726612556	10.2392307151354	79.5336477124749	3.48004935258074	83.1375114781571	3.68311799327852	147	8.57559600600321	146	0
48	P4-Cz	264078	264134	56	31.6993266282585	17.4691480078234	116.42276426787	3.7902566460214	157.937108971673	6.86469489519589	123	15.1028326436195	128	0
48	P4-Cz	264308	264363	55	15.9424201508851	20.2670039452241	49.5159792052117	0.701675817294535	157.937108971673	1.93944183591932	161	8.68091273404415	160	0
48	P4-Cz	264594	264651	57	25.0237118190395	20.2316807828518	94.6227106413759	1.67933938755434	157.937108971673	1.54126358264536	172	13.8178900998634	204	0
48	P4-Cz	264846	264888	42	24.4014809274109	20.2970944993281	85.6218502956563	1.59641367006844	157.937108971673	1.46576681947312	119	12.700391632874	231	0
48	P4-Cz	265002	265109	107	26.2141050957208	19.5066145208455	118.249593877997	1.95559731063169	157.937108971673	4.00296226856447	127	11.6200753008403	225	0
48	P4-Cz	285032	285074	42	14.4842263020173	8.48006676973301	47.0983831491505	2.91737367443778	66.2854666715113	0.537704599470132	100	8.69951066792683	198	0
48	P4-Cz	307703	307754	51	17.2691120921049	8.14193747972086	61.5411482944819	4.49867366590719	104.488932514565	3.42407881802309	147	9.67610120878313	163	0
48	P4-Cz	330051	330108	57	20.8308676300338	10.2169747242771	75.2896978341923	4.15690481791923	82.0940475636004	2.54767393121517	200	10.2737449623929	233	0
48	P4-Cz	335028	335078	50	26.536861478332	11.1925491535554	116.956999185934	5.62135605493735	116.956999185934	3.87643605381105	153	12.8974050313086	195	0
48	P4-Cz	340131	340186	55	17.8125369903062	9.18028708989214	73.0032509417935	3.76477505924546	73.0032509417935	0.923849580351819	137	9.53940060587332	198	0
48	P4-Cz	349739	349805	66	25.4064510258206	10.5602043712145	95.9950129299574	5.78819776037738	114.248409000257	7.53090587388411	136	10.5083852639509	135	0
48	P4-Cz	354927	355101	174	27.0190540578452	12.9544626252546	119.047845487232	4.35012238772733	122.988853961791	2.86114546174216	182	10.949041128442	225	0
48	P4-Cz	365648	365696	48	18.0285947766675	10.0638434070103	63.6494379512405	3.20919431036832	94.4303772391293	1.81736258882611	165	7.34175970770909	198	0
48	P4-Cz	371829	371882	53	20.282800594382	10.2711650102685	77.9728238003268	3.89956738364476	81.4674467338783	2.08917335694491	125	8.12012487528021	224	0
48	P4-Cz	375807	376008	201	21.8539334335408	13.8864470138033	143.726246161204	2.74007013901854	143.726246161204	6.56387889023873	152	9.42848504118628	169	0
48	P4-Cz	376865	377096	231	19.9019126431028	15.0520983054659	87.3007225529979	1.9780707015578	143.726246161204	6.72988488655996	160	6.87781108594877	162	0
48	P4-Cz	381847	381899	52	29.2837094887699	12.5453675918176	127.494649460816	5.85025367519346	127.494649460816	4.20452589569791	165	13.0874149881235	226	0
48	P4-Cz	382000	382052	52	23.5441855449357	12.119109527364	102.561478103978	4.34673483381718	127.494649460816	4.75309614755598	191	11.4354332880241	190	0
48	P4-Cz	385967	386008	41	19.3938819450839	10.5293360485639	68.7812002268798	3.39255988136025	80.8389754479676	6.25105736048566	145	7.48233893665641	179	0
48	P4-Cz	402812	402869	57	36.449847456921	15.5809575938433	137.491143628449	5.47271886792825	137.491143628449	7.10796734767303	167	14.1945080939022	166	0
48	P4-Cz	413543	413586	43	27.6207942787073	11.2122470560292	97.4089750652923	6.06857898976017	100.960173963177	2.22454337662163	104	14.6496262382492	196	0
48	P4-Cz	417798	417864	66	22.7765690857632	14.4975915090137	104.210807737036	2.67779718041245	126.608974529537	2.23483625257942	165	11.0669833730812	200	0
48	P4-Cz	417958	418085	127	17.1663016755338	15.4021200058743	68.5648683771967	1.35240631790405	135.013729384117	4.87810656247977	111	7.20061904271512	142	0
48	P4-Cz	418251	418311	60	22.8302166176837	15.5163447358476	87.4232493509018	2.30003683028335	135.013729384117	2.8242871227757	121	7.83382375595215	141	0
48	P4-Cz	419579	419621	42	15.9665527255954	11.3841901653938	56.1720714175612	1.96706194010506	123.038852764968	3.5458940938635	171	3.56077866806762	184	0
48	P4-Cz	422982	423067	85	18.3610777286925	14.0794482238703	68.9605440199155	1.87227317259573	118.451752411785	5.38705604553369	154	5.58465091984869	168	0
48	P4-Cz	423791	423852	61	27.6783097479831	18.0140173078043	109.634871242409	2.6508367236771	127.961387978345	5.2729294399863	117	8.97554717100475	116	0
48	P4-Cz	424155	424232	77	21.7570627886667	17.2448666490582	82.6886555787838	1.89442852407538	127.961387978345	4.93639576809257	113	10.1465567146141	135	0
48	P4-Cz	424316	424376	60	20.0932339677781	17.1697160097119	78.2387780371695	1.66921788795674	127.961387978345	7.18081041877901	111	7.95910740713154	149	0
48	P4-Cz	424456	424663	207	22.5325010058562	15.5664691902311	118.375288065353	2.43189996467955	127.961387978345	6.14810539672437	61	8.71266083556937	87	0
48	P4-Cz	427866	427919	53	26.3244768131218	12.9517997352746	101.274722896191	4.13103862737376	131.846143921156	7.62480308705441	138	9.73942753139844	179	0
48	P4-Cz	431956	432011	55	28.9408394283391	13.0680909734247	137.224824073128	4.9045362525527	169.566605676882	2.15905825356406	167	12.7328182548473	205	0
48	P4-Cz	437891	437936	45	16.4249732293465	9.35819835822542	54.4076879989811	3.08052578324024	67.2417576082801	1.81533493231688	138	9.13151936808188	219	0
48	P4-Cz	492207	492250	43	16.4216655045697	9.25583166150575	59.3363465930089	3.147773744346	68.7127066758495	5.42207566095825	143	7.96013045978391	176	0
48	P4-Cz	515471	515545	74	20.7187469011796	9.22594973635842	89.5164513205632	5.04318386300952	93.9774056163331	2.5581941605777	149	9.68416178616113	219	0
48	P4-Cz	541402	541444	42	17.5364538430398	8.17312101896752	62.9628323395076	4.6037071954485	65.3410386097534	4.61571206263709	168	5.03068445168576	167	0
48	P4-Cz	562759	562804	45	22.8351968550114	9.67760453227658	86.7055353268944	5.56767373424681	86.7055353268944	1.54304018634143	128	12.9450030535092	217	0
48	P4-Cz	567976	568026	50	18.8132730361335	7.90566259206888	67.0248224015969	5.66307308950994	68.807635048614	4.79165674331615	179	9.5223685524197	178	0
48	P4-Cz	595587	595637	50	20.998601806672	11.2643825758082	77.4758883348083	3.47508932291822	86.9738193948108	5.3356183454422	173	7.00912026758078	172	0
49	T3-F3	306351	306419	68	5.32997536452045	2.74486540151291	17.3771495259943	3.77058119552662	17.3771495259943	0.76217289033181	132	3.00379769811982	131	0
50	F3-Cz	18478	18537	59	19.9888065138604	13.7517658248096	77.7121376088279	2.11279223370377	111.288366468625	4.98661108895572	177	9.66949292489807	186	0
50	F3-Cz	39281	39326	45	18.4491262974738	14.6330280491343	58.1740617545435	1.58958295683759	133.261511295975	4.57355084262929	61	9.08776159951871	83	0
50	F3-Cz	42119	42201	82	34.6861084888787	15.8817598395173	141.282344742206	4.76995088650949	152.444289576021	3.6970720294625	141	17.280462974406	140	0
50	F3-Cz	43354	43432	78	21.4880193750717	18.5638138047317	90.6406509400528	1.44532422596923	143.357536130328	5.34828580051328	165	12.1960609618259	187	0
50	F3-Cz	44040	44094	54	22.6274966550324	15.4742878805107	77.7480719855345	2.50219601899169	124.931525889295	3.30026434244098	64	13.6059978788596	82	0
50	F3-Cz	44233	44316	83	28.1450417455771	14.8215497437133	106.953789968875	3.94465696043116	124.931525889295	2.89658802015305	117	12.8071339623169	209	0
50	F3-Cz	122951	122997	46	22.2109480649671	10.7812044473198	85.7080228851075	4.24423702530908	86.3373444760336	3.36371275380359	129	8.86394059617047	227	0
50	F3-Cz	127966	128030	64	30.4787483386412	15.7743640453805	139.416522276144	3.73327977247579	142.327051926351	7.04977656748056	125	15.1144945649215	137	0
50	F3-Cz	130452	130500	48	32.9435200391169	20.4749519634313	127.125763308837	4.75252795051926	173.473131364867	5.07092839554745	126	15.3018395168254	232	0
50	F3-Cz	130587	130963	376	25.4629333512564	22.5558585860778	131.527394723995	2.08488766448705	173.473131364867	3.75808248081083	229	9.40522448397959	267	0
50	F3-Cz	131074	131278	204	30.7467602708317	24.7392693806968	147.425977151901	2.01377551719264	173.473131364867	9.9408435258264	125	9.86739398969544	124	0
50	F3-Cz	131363	131619	256	29.3145285610368	24.9219488318292	132.295064118388	1.76186969372203	173.473131364867	9.22126433378769	143	10.5379684748116	142	0
50	F3-Cz	131807	131976	169	28.716214392757	22.8469517690548	130.03356287523	2.16721755573954	173.473131364867	8.65893547210836	148	8.35997775360395	147	0
50	F3-Cz	132121	132183	62	29.9560852569381	22.1375355136108	117.265727980738	2.73149504019914	173.473131364867	9.82496757688053	101	6.539039812385	100	0
50	F3-Cz	135891	136005	114	30.5820523926566	10.8489610551413	134.49069914136	7.94615359701684	134.49069914136	6.09624571305778	124	10.683978808827	123	0
50	F3-Cz	208898	209244	346	26.9465176905288	14.1093070782634	135.530526609942	3.64748846288264	142.434766402262	4.35125993884588	151	9.41549782840845	234	0
50	F3-Cz	264594	264648	54	25.1041078985637	20.2679024245828	89.3066090805978	1.60566766990582	158.025871292328	1.79345322513167	167	13.981349858298	204	0
50	F3-Cz	264846	264888	42	23.1823193474315	20.3401478721186	80.9735779421101	1.3710946862761	158.025871292328	1.67970287822346	121	12.206985455279	230	0
50	F3-Cz	265003	265109	106	26.0034639233009	19.5271769516044	112.071792415076	1.82463505337005	158.025871292328	3.90295470158496	126	11.7822672338485	228	0
50	F3-Cz	330051	330138	87	18.7091855754088	10.2245068047599	71.0711200993822	3.34830513504255	85.0968793174077	4.17433515195464	159	7.62563551153619	235	0
50	F3-Cz	340131	340173	42	19.0640015088195	9.71596403819104	74.1167874994992	3.84996099936048	78.7665166000342	1.34597202712445	169	9.79003094847189	195	0
50	F3-Cz	350572	350649	77	18.1324123999275	11.7830798358219	77.2452032204964	2.36806454501672	111.247747593806	3.93824851953984	180	9.02973835511206	179	0
50	F3-Cz	354927	355076	149	26.4096884002221	13.5201479865081	121.812319964647	3.91433428197605	122.880996447804	2.97527901683695	188	11.4573069326246	230	0
50	F3-Cz	355405	355477	72	17.4498434062742	14.8218031867579	59.0931010431086	1.68280182380068	122.880996447804	4.27948931151232	148	4.74249684767813	159	0
50	F3-Cz	365647	365696	49	18.3971458348995	10.3293295086706	66.1975521310813	3.17217135098424	95.6624146846708	2.42079860757916	140	7.23179483347114	195	0
50	F3-Cz	376866	377094	228	19.9788817065867	15.4663405199922	85.6469411475446	1.66865754098607	150.983166212439	6.67578623156766	163	6.68830998566553	162	0
50	F3-Cz	381847	381900	53	29.7254077115348	12.8436051831614	126.400873562279	5.35650786208495	126.400873562279	4.3724249281511	186	13.3350069323822	224	0
50	F3-Cz	396673	396717	44	17.7820664999067	10.0846999135619	67.1798164159455	3.10912727662075	91.000454664963	1.48074952553464	125	9.3638060357197	210	0
50	F3-Cz	402812	402869	57	35.1798920333576	15.714294276848	132.852875326363	5.01186357704724	132.852875326363	6.71436852508841	168	13.8741626188547	167	0
50	F3-Cz	413544	413586	42	27.1670219680414	11.2868811130651	97.0582479355926	5.79343537399877	97.9234003942173	1.73894335482056	147	14.5177067426886	197	0
50	F3-Cz	417797	417863	66	22.027224729878	15.0123888109962	102.559119106678	2.15288066631366	135.049403328152	3.22145922621935	166	10.9752084615708	201	0
50	F3-Cz	419580	419622	42	17.1981854890706	11.6791532600158	56.7544476643124	2.16841569632552	120.438692450081	3.75017392649732	166	3.88596311698389	182	0
50	F3-Cz	422766	422808	42	23.6964647534467	13.2285455876504	93.3734929799323	4.56133466362075	118.499523788823	4.31503605715357	89	8.08634357814277	125	0
50	F3-Cz	422982	423050	68	18.0711810190445	14.4424819573631	66.4103469969404	2.26156182540278	118.499523788823	6.66700644856195	61	8.47616867132042	93	0
50	F3-Cz	423552	423599	47	30.6708908239588	17.8715454079189	112.171087924052	4.06630517958772	124.356826635619	2.63615570021224	149	15.9186767305238	218	0
50	F3-Cz	423712	423851	139	25.6945319088544	17.8974262200963	117.074590125624	2.64146261855656	129.93798072673	4.858308692111	200	10.4976532783041	247	0
50	F3-Cz	424155	424213	58	22.3481035686951	17.6334174867815	78.1295850422641	2.250379643993	129.93798072673	4.43887622045684	117	10.9673724799026	138	0
50	F3-Cz	424316	424599	283	22.6093044615233	15.6591624749334	109.243279403935	2.77113758713126	129.93798072673	7.23691180140532	83	7.99702035165606	90	0
50	F3-Cz	427879	427920	41	28.1813601896396	13.0698209231721	109.871905160818	4.64926849383427	126.763461297862	8.4564550721514	143	9.59018307970718	170	0
50	F3-Cz	431956	432011	55	27.7259347816252	13.2419478765441	130.376924240282	4.38398083119385	163.034837140316	1.90379607694928	169	12.7606035589291	205	0
50	F3-Cz	437893	437936	43	17.0852038622058	9.9907322550184	58.5758680616019	2.92446002823061	72.4113099527551	1.83402713366951	163	9.26774516802811	219	0
50	F3-Cz	492205	492251	46	17.9297218830133	9.27007868193027	68.1215651469497	3.74093588881831	72.3684485876747	5.81308001074283	143	6.11654917233034	174	0
50	F3-Cz	515471	515543	72	21.550789884675	9.32492434805562	91.1987097861776	5.34116200665707	91.1987097861776	3.09443263532241	138	9.80796808392244	218	0
50	F3-Cz	562761	562803	42	22.3929854568623	9.9869084553314	84.0569761650928	5.02761320452822	84.0569761650928	1.0239864102019	159	12.9782307884315	218	0
50	F3-Cz	595583	595636	53	18.9866960217497	11.5561619887428	69.0706941594841	2.69942678495127	85.9761466296328	4.91009616364599	177	6.76701274678106	176	0
51	T4-F4	532212	532321	109	7.88726173907045	2.65906860132491	29.586542078537	8.79819174466282	29.586542078537	1.71864071817755	143	3.90183758900097	142	1
52	F4-Cz	18481	18537	56	19.3626409282913	13.6458417422784	71.4999908471417	2.01339285453143	111.56508559261	5.15687495962061	174	9.90509154537487	185	0
52	F4-Cz	39281	39326	45	17.5662645898699	14.4812678319538	57.2489199936261	1.4714505380344	138.667768247175	4.37333374889546	61	8.18469454038791	83	0
52	F4-Cz	42119	42202	83	33.9821260301366	15.901179010875	132.489675485835	5.20604809551258	154.258289899774	3.7055217973173	141	16.8926841323651	140	0
52	F4-Cz	42497	42558	61	34.9690031577841	17.2652213298487	140.658401089777	4.85538862288487	154.258289899774	5.72188683581841	83	13.4633028984472	107	0
52	F4-Cz	43355	43431	76	21.6288241509646	19.1301307075529	88.3381550367411	1.59519714653476	154.258289899774	5.19171247876812	164	11.9954188876265	188	0
52	F4-Cz	44013	44154	141	23.1689226964153	15.1469651371235	91.1266456773864	2.86123296617672	125.745434976995	6.77625476892632	69	9.31391034878475	82	0
52	F4-Cz	44233	44316	83	30.4379311799678	14.9755508145224	116.503819283703	4.90662837564171	125.745434976995	2.51043958943531	123	13.5095306275013	209	0
52	F4-Cz	102037	102078	41	17.1719055015127	9.49290350631993	61.1344283751894	3.27219251569178	70.5924261119811	2.76733348624181	186	9.78965254140836	185	0
52	F4-Cz	127964	128034	70	28.8528854546671	15.8878301532192	134.313885164285	3.2979899388316	141.355413746786	7.00283423737317	125	14.2879949084509	139	0
52	F4-Cz	130452	130500	48	32.0528688252205	20.0697426401142	133.757344307331	4.17320758771755	171.111475112072	4.85137756146743	125	14.8946925582454	231	0
52	F4-Cz	130586	130804	218	28.2268736959267	21.3505745754354	136.571079666525	3.01174061468526	171.111475112072	3.30548432349495	239	11.1953769264834	255	0
52	F4-Cz	131032	131277	245	28.8092655762522	24.3177807039574	152.466592407644	2.13970697335289	171.111475112072	8.58387500364333	128	9.5203218580396	127	0
52	F4-Cz	131460	131979	519	29.2174822466802	22.1083210196715	158.085550154548	2.50637303029136	171.111475112072	8.65826080505516	150	8.32987527693901	149	0
52	F4-Cz	132121	132207	86	29.8647768801954	21.6983642147106	114.401428207015	3.39515712846833	171.111475112072	9.50946327070578	61	11.1656066050557	99	0
52	F4-Cz	135891	136004	113	29.8379876877183	10.646519746049	134.148307550539	7.85459384617028	134.148307550539	6.15558166252779	124	10.4417927931278	123	0
52	F4-Cz	208898	208980	82	30.2295063013446	16.6960050008174	135.1301078007	3.74442634525738	146.254038782515	5.97596327485773	161	12.6971288398244	160	0
52	F4-Cz	209102	209244	142	27.0087266505716	15.6523225262003	125.990349728646	3.37660232178727	146.254038782515	5.61512862315459	147	9.55223751475112	203	0
52	F4-Cz	245373	245429	56	16.6373671480335	6.8726355360519	59.1472970732469	5.86033677724243	61.5033653018212	2.44461056119316	163	7.50192560874555	166	0
52	F4-Cz	254991	255052	61	20.1672633167879	10.221483589381	84.9279681150179	3.89283562568535	84.9279681150179	3.66477142837398	148	9.2810281795253	147	0
52	F4-Cz	264077	264133	56	31.5561109811453	17.3472113723648	114.867136899017	3.67433423983068	154.662097205081	6.47435042500453	120	15.3404140481159	128	0
52	F4-Cz	264308	264360	52	15.7058504864149	20.1709940223512	48.443773118777	0.675999538227787	155.182972066906	1.62502019529793	164	8.35332574817585	163	0
52	F4-Cz	264594	264646	52	25.9466473562142	20.1351413408432	93.3796282310058	1.79127300729687	155.182972066906	1.51050170818941	136	14.1283071664689	204	0
52	F4-Cz	264846	264888	42	24.7154120848554	20.2094300829021	87.0817913500735	1.62449021787315	155.182972066906	1.7938753945293	127	13.0142602397671	230	0
52	F4-Cz	265003	265046	43	29.0421418240875	19.8462400435706	105.21488430544	2.30674172623248	155.182972066906	3.95462152684112	126	13.1598674822847	194	0
52	F4-Cz	307703	307753	50	17.1492104639982	8.34964029816741	57.9754960265528	4.21844826703513	104.768391139774	3.46522912684802	147	9.41308488128893	163	0
52	F4-Cz	330051	330118	67	19.5756996738897	10.401971145625	72.4899448130413	3.5416308958997	87.9240515208182	3.58932369947781	202	8.85782029556616	235	0
52	F4-Cz	335028	335079	51	26.3373279264359	11.5596936736815	114.457634825336	5.19099691866888	114.457634825336	3.74347353452243	154	12.7952983297331	195	0
52	F4-Cz	340131	340184	53	18.2136011416977	9.19192877810032	75.1978602698177	3.92625355134282	75.827031658372	0.990613512914857	139	9.54599500433707	198	0
52	F4-Cz	349739	349805	66	25.3362243866825	10.8168259102536	91.9894033017615	5.48635762145096	110.681081091862	7.22648229412546	136	10.3032242814183	135	0
52	F4-Cz	354880	355063	183	25.1173861880765	13.2401860841025	118.185441077335	3.59882483024123	119.871647371248	3.44675934000945	175	9.47940523677055	228	0
52	F4-Cz	365648	365695	47	19.1972965158211	10.1685815112566	68.5996781578209	3.56417809943758	94.0814751589498	2.39751860244577	135	7.7189657015635	197	0
52	F4-Cz	371829	371882	53	21.2318186701137	10.3971329096245	80.2216031567178	4.17010702750455	85.9740202639362	1.99847439389027	125	8.36644596827787	224	0
52	F4-Cz	376814	377094	280	20.0601091544415	15.1873438057804	90.0030399526649	1.74462838750226	156.155516265701	6.8992918974294	161	7.16534229280913	160	0
52	F4-Cz	381847	381898	51	30.4609444423481	12.8148566111447	130.29706353377	5.6501402322797	130.29706353377	4.39355206586749	165	13.2667076824951	224	0
52	F4-Cz	402810	402869	59	33.7077006942684	15.5205798297249	131.755170002935	4.71674474297895	131.755170002935	7.03013238510608	169	13.2479868324035	168	0
52	F4-Cz	413543	413587	44	26.8822009808502	11.4445526563247	95.2540541067479	5.51736866520875	101.034339232898	2.28509757503404	106	14.3017984714152	196	0
52	F4-Cz	417797	417863	66	22.0063405509447	14.8670501427678	98.3381363569137	2.19101850967835	130.873402007267	2.45788103189633	165	10.8650458868984	200	0
52	F4-Cz	422983	423067	84	19.1355919813979	14.061870642834	72.5595620237865	2.2841765295291	115.689281410327	7.62197623989947	91	5.76882361969706	90	0
52	F4-Cz	423543	423599	56	28.5437362094173	17.5904560673581	109.576622636579	3.28643285988582	126.238390190314	4.18395850063869	188	13.3099455135631	216	0
52	F4-Cz	423792	423852	60	27.855903156356	18.1033769845591	109.73699738359	3.03671010387273	128.08332652215	5.08434206432631	118	8.94455919892362	117	0
52	F4-Cz	424078	424232	154	22.3448111411375	16.8188530426917	113.020125826889	2.383191291256	128.08332652215	6.39645427081384	115	8.11796880141068	134	0
52	F4-Cz	424317	424377	60	20.6474276667363	17.2261435029815	77.56543021555	2.0604891192513	128.08332652215	7.51221872954592	110	8.3525384626726	149	0
52	F4-Cz	424457	424663	206	22.8233840449522	15.5734860798087	119.657881559838	3.01436787458901	128.08332652215	4.00454350288384	121	8.91324688724147	195	0
52	F4-Cz	427866	427920	54	25.418381925197	12.8718717851876	100.863058478044	3.89953112860195	130.245026950132	10.5070279928643	84	9.55077366932696	83	0
52	F4-Cz	431956	432011	55	28.6596898624181	12.9643151340983	136.37550493403	4.8870166015985	164.964441959474	1.61474150265366	165	12.8839576014807	204	0
52	F4-Cz	437892	437935	43	16.9235789512557	9.39526354920515	56.4134682687812	3.24463978690766	66.5556441874619	1.89173084749696	206	9.40734344091472	220	0
52	F4-Cz	515471	515544	73	21.1495799496618	9.08823594260328	93.434913189896	5.4155716472808	93.434913189896	3.06279003605694	149	9.66931977316377	218	0
52	F4-Cz	541401	541445	44	17.7700383199657	8.33342461366099	62.839697815028	4.54704975722833	67.9297941569208	4.54719424420802	169	8.70616974044774	168	0
52	F4-Cz	562743	562806	63	20.6441276860062	9.84132512986579	84.9167112661388	4.40033674732768	84.9167112661388	2.34408786363019	164	10.6171963820494	204	0
52	F4-Cz	595587	595634	47	21.3439267410425	11.6353092721747	75.0482703732286	3.36505975140883	91.0052654872543	6.63487861393764	153	6.81021451697564	152	0
