nChannel	strChannelName	indStart	indStop	indDuration	Event_RMS	Window_RMS	EventPeak2Peak	SNR	Amplpp	PowerTrough	Ftrough	PowmaxFR	fmax_FR	EvPassRejection
1	Fp1-Fp2	275446	275493	47	8.78346736311755	4.8116240924619	31.2853598283817	3.33233459838625	31.2853598283817	2.23959360439948	171	4.42959527862754	170	0
2	Fp1-F7	29495	29582	87	5.4969412087544	2.36564903992226	18.3155237118501	5.3993509277637	18.3155237118501	0.596020733878877	86	0.684381221938549	105	1
2	Fp1-F7	182348	182423	75	5.20070729482476	2.55401891098216	17.393046877738	4.14645165274846	17.476216523372	0.452760788998516	116	0.513770459059745	115	1
2	Fp1-F7	212912	212989	77	4.61354076044027	2.36079496579106	15.1092722518095	3.81902220131942	15.9031707449272	0.39842672194162	118	0.448682054096016	117	0
2	Fp1-F7	234000	234087	87	4.91165834536238	2.55949832328368	17.6086421338969	3.68253260375602	18.4689054278148	0.398217410033828	87	0.459057283412813	104	0
2	Fp1-F7	399006	399234	228	7.55320675262064	3.91076799349615	44.9082055750836	3.73025603017656	44.9082055750836	0.847332704918658	NaN	6.31559709527435	300	0
3	F7-T3	30951	30996	45	3.27728084317726	1.56370715897457	10.9989089488982	4.3925475334826	11.7055103517671	0.977594427831021	61	0.864770229235601	82	1
3	F7-T3	79777	79856	79	3.48643171988944	1.53827267211607	12.1032328912527	5.13683574366947	12.1032328912527	0.295381642466194	103	0.388702980716906	106	1
4	T3-T5	285892	285960	68	4.93704270555507	1.83683044099646	21.1524226178087	7.22429765568442	21.1524226178087	1.16387930220476	83	2.64938303558107	82	1
5	T5-O1	163443	163526	83	4.82547564698737	1.54829939877212	17.4993942317077	9.71337970574415	17.4993942317077	0.554451795205301	109	0.43646341119516	108	1
5	T5-O1	285876	285964	88	4.65099274798068	1.61714445872346	19.2696421857509	8.27167935078823	19.2696421857509	0.986731534977347	83	0.680157407746892	82	1
5	T5-O1	569109	569191	82	3.81184758998994	1.76797082093113	14.3993982163219	4.64858599632716	14.3993982163219	0.333402139236238	102	2.33183956111347	118	1
7	F8-T4	413160	413207	47	6.65507293658597	3.38121539052642	22.424806592407	3.87400310776659	24.7095519577428	1.77240914064295	192	2.97465575909819	191	0
8	T4-T6	17985	18168	183	4.54002813471547	2.01947919572301	19.6169539998425	5.0540358871019	19.6169539998425	0.363425520975473	205	0.583511255683996	300	1
8	T4-T6	110766	110872	106	5.35940967731368	2.01515254030504	19.3619361700146	7.07323454800575	19.3619361700146	0.558882677584425	108	0.51433939515054	107	1
8	T4-T6	122122	122177	55	5.58906526504485	2.36127086662873	19.3707225160578	5.60256294306594	19.6030656563346	0.845929004679317	85	0.750237464496056	84	1
8	T4-T6	150149	150274	125	6.34160919929119	2.54072353868101	24.6549095876657	6.22994378760752	27.1682667008143	0.644883608508134	85	0.914808939824401	105	1
8	T4-T6	151935	152011	76	6.31613943379554	1.74135564900212	24.6070614664593	13.1561391850932	24.6070614664593	0.969785048266503	83	0.885599704434589	82	1
8	T4-T6	180199	180294	95	6.6009385332752	2.44454780098117	25.6850298816839	7.29145684174633	26.7029560129017	1.23073818760501	83	0.76980438715386	82	1
8	T4-T6	234146	234229	83	4.93584197672501	2.68643594300235	19.3682735390902	3.37574408469823	25.113012221926	0.482660336090746	91	0.629504736387128	107	0
8	T4-T6	261692	261783	91	6.21676470550463	2.52177662795666	25.746336281907	6.07736933274906	25.746336281907	1.32810528443356	84	3.33318693108365	83	1
8	T4-T6	266345	266579	234	5.4571895006446	2.91425791472436	23.0843272662932	3.50656667026268	23.0843272662932	0.815625327728672	83	0.706817511006084	82	0
8	T4-T6	292876	292940	64	6.13178091680185	2.32520944420017	20.5896911937279	6.95423083791002	20.5896911937279	0.814584706553363	83	0.691245174864263	82	1
8	T4-T6	316389	316453	64	5.54348836077366	2.69185621503778	18.1737192938764	4.24094424780938	23.5934822327968	0.812702685506711	89	0.973150299638561	117	1
8	T4-T6	344298	344393	95	5.14882710319477	2.5323846789306	19.7410368450857	4.13387425807638	21.0793082801798	0.607829699008572	88	0.511311104619119	87	1
8	T4-T6	378611	378725	114	12.7008651842905	1.9607992595677	82.5649584566326	41.9566054485403	82.5649584566326	1.09785437626713	NaN	7.70082999287042	300	0
8	T4-T6	456968	457053	85	5.30063641833384	2.52981058905776	21.2941658505395	4.39015668000642	29.2387184000058	1.4707068786812	84	2.65373533607352	83	1
8	T4-T6	463505	463582	77	5.29567166826333	1.89842197766367	17.8624492379972	7.78137949187348	17.8624492379972	0.633481934935252	83	4.45612071747835	82	1
8	T4-T6	478840	478918	78	5.28638028656919	2.45907379467312	19.5294953623942	4.62140127781354	21.1065748859689	0.332697499797417	232	0.472897052250458	300	1
8	T4-T6	490015	490130	115	5.40370517874453	2.30848569333172	20.5801905312408	5.47934842787888	20.700811118667	0.581357502203417	83	0.591339876754223	82	1
8	T4-T6	556564	556630	66	4.04717908702978	2.0413188750342	13.115774024758	3.93081986340789	15.2734832101909	0.74601760481629	84	0.272257149896746	83	0
8	T4-T6	591576	591661	85	4.87965572504664	2.29311493479773	16.9699632391854	4.52821166139034	20.8339865678556	0.693139135581253	116	0.520593500048707	115	1
9	T6-O2	14907	15019	112	5.93345565167094	2.14403398921373	24.0749287877983	8.4670751729597	24.0749287877983	0.769578254384417	83	0.508044326572653	82	1
9	T6-O2	15242	15315	73	4.00253564703377	2.38591386819226	14.1630976326713	4.08136670454385	24.0749287877983	0.615361659966339	83	0.780325720939673	104	1
9	T6-O2	17983	18151	168	4.91609075139169	1.48012604167905	20.639877732231	11.0316984831159	20.639877732231	0.458742691772562	90	0.517616049600374	89	1
9	T6-O2	64824	65015	191	4.97481764586228	1.74360393504597	28.2758290028188	8.1406419066795	28.2758290028188	1.32933015693851	88	0.367556258021362	87	1
9	T6-O2	73459	73715	256	4.18919583966772	1.55553356430441	18.11834432165	7.25274743565149	18.11834432165	0.558387068913898	114	0.561808308102671	113	1
9	T6-O2	82286	82381	95	4.6911211198528	1.94910317284852	15.1791769109738	7.53737687169573	19.2760018295236	0.596213488447716	79	0.600488430588373	82	1
9	T6-O2	82479	82546	67	5.3649366607718	1.96792769542306	19.2760018295236	9.72900557019553	19.2760018295236	0.852166462848448	83	0.610574788709678	82	1
9	T6-O2	110763	110880	117	4.37077571209423	1.74549209445102	14.9241913733902	6.27019821126108	14.9241913733902	0.296600359607617	109	3.22092105864298	108	1
9	T6-O2	136719	136808	89	4.08136403237635	1.71310562608425	13.7717663123645	5.67599995064269	13.8134902520778	0.402326912875282	87	0.538591702429542	93	1
9	T6-O2	150189	150348	159	6.33336100734562	1.8427545209219	23.8735685136111	11.8122741287182	23.8735685136111	0.490702362293073	105	4.24153506197701	104	1
9	T6-O2	180192	180299	107	6.36856761872448	2.21455790643864	24.0725742450928	8.27007498202398	24.9544067175188	0.997511422889629	83	3.99463976890812	82	1
9	T6-O2	209167	209533	366	3.75923649609842	1.62786829619945	18.3108705452409	5.33286717003615	18.3108705452409	0.381657552045785	NaN	3.61375075410142	300	1
9	T6-O2	219262	219330	68	4.89810024111415	2.06629776791337	19.6628408126164	5.61913575584663	19.6628408126164	0.895020523998629	83	0.571074610116592	82	1
9	T6-O2	233587	233671	84	4.5435561356639	2.4006779046604	16.884106209843	3.58198700217623	25.1009066641788	0.615037477358586	114	2.55420270707105	113	0
9	T6-O2	262065	262159	94	4.54398225762248	2.41322255517548	16.0025341034778	4.27462971846938	19.8859089224197	0.529375715155637	91	0.543007443956011	110	1
9	T6-O2	262265	262352	87	5.23508575551109	2.37404515526006	19.2042554217196	5.60741815237636	19.8859089224197	0.370597657111985	NaN	3.46209015690269	300	1
9	T6-O2	266347	266572	225	5.45582108970807	2.65158593478873	25.397367612351	8.27541004771566	25.397367612351	0.982693175696104	83	0.401299630162711	82	1
9	T6-O2	266853	266929	76	4.9390987029591	3.12548388443881	18.5327128539023	5.98548202463424	46.8381459825497	0.725739976977449	91	0.509039151102069	90	1
9	T6-O2	267515	267607	92	8.00472208787932	2.18173780704395	46.8381459825497	20.1547028391796	46.8381459825497	1.87963848035334	83	4.23673370282505	82	0
9	T6-O2	285564	285657	93	4.11176445073493	1.74250135931943	14.6755345598554	5.56814073704316	14.6755345598554	0.72987877499945	83	0.46416855563497	82	1
9	T6-O2	287541	287621	80	3.57862688096263	1.98399441020204	12.7555405326831	3.25350854134022	17.6699250708522	0.557088804313058	83	0.389702463519904	82	0
9	T6-O2	292598	292694	96	4.6457562777171	2.14198255092423	18.3264926363505	8.13596680043123	26.1183909692707	0.398627003858329	104	0.390379989134412	103	1
9	T6-O2	292851	292968	117	5.95435921979464	1.92041620140548	26.1183909692707	12.7724500758164	26.1183909692707	0.399268162766323	NaN	8.79960419117542	300	1
9	T6-O2	316386	316457	71	5.17742761633705	2.15027870575036	17.6889509531448	5.79747071538096	20.2571349494322	0.372588211604383	118	0.539112371466503	126	1
9	T6-O2	342175	342305	130	5.94704091711232	2.29175473873744	24.9169706028424	6.73388316652944	24.9169706028424	0.581090626082546	112	0.600094575807497	111	1
9	T6-O2	344080	344181	101	4.3489019706667	1.97919449346095	16.8795676408737	4.82816705782531	16.8795676408737	0.600702209723063	101	0.637206516296137	100	1
9	T6-O2	351419	351508	89	4.88883712337937	1.80655123599432	18.5126158642002	7.32336315453271	18.5126158642002	0.596161019869897	100	0.602537758784781	103	1
9	T6-O2	369620	369717	97	4.27051813955452	1.88346223221913	15.7821487538484	5.14099651919195	16.7275655003677	0.591383773070127	76	0.632706970115527	89	1
9	T6-O2	378577	378701	124	12.1502233910717	1.47682354125119	82.9953224555874	67.6879424037981	82.9953224555874	1.00383652762046	NaN	8.09536996282176	300	0
9	T6-O2	388737	388820	83	4.48533679605342	2.02334535730661	17.7418169898563	4.91416895095088	17.7418169898563	0.746566846608591	83	2.55899188652685	82	1
9	T6-O2	429117	429198	81	3.93847585578022	1.92580388540799	14.848809594946	4.18246444486324	17.6434581405391	0.513826306981619	83	0.523585583331557	82	1
9	T6-O2	437361	437483	122	4.42876985603561	1.75678241332022	17.5935553689624	6.35521539565841	17.5935553689624	0.450001455952147	111	2.64015573916234	110	1
9	T6-O2	447472	447536	64	3.84778502470545	1.52831350918765	12.9381918325209	6.33864889204241	12.9381918325209	0.802802196427096	83	2.24311829272673	82	1
9	T6-O2	456824	457047	223	5.1488800370312	1.87460083648015	23.8963895112669	7.54410863852595	23.8963895112669	0.360573618444359	273	0.362425885858744	300	1
9	T6-O2	479114	479188	74	3.76596228424351	1.92734827075076	12.8665719687074	3.81796141952435	14.1967950469969	0.639422510816424	83	0.346375087272986	82	0
9	T6-O2	489793	489894	101	4.44426035269817	1.8942334701431	16.1111735618727	7.45034067588087	16.9126747544132	0.576611288754419	83	0.512275109356393	82	1
9	T6-O2	490012	490131	119	4.27415707652238	1.89222056887911	15.7126236953176	6.73748625691531	16.9126747544132	0.461201785174164	83	0.420201338622524	82	1
9	T6-O2	526044	526125	81	4.02623042015624	1.76221943188487	13.3902796011553	5.22008145568116	15.5884766868896	0.588671352323779	83	2.52816637312165	82	1
9	T6-O2	569090	569202	112	6.47817121760691	1.8631067491733	26.2697403259594	12.0900853345796	26.2697403259594	0.586164691953282	108	0.369977103481739	107	1
9	T6-O2	595709	595782	73	4.2567612439176	1.79421594500356	13.8085107521342	5.62871370994576	14.4423286221015	0.707329691835617	83	2.87678849582797	82	1
10	Fp1-F3	410558	410631	73	6.65367622211315	3.40060524931719	24.1999728969511	3.82834338851045	24.1999728969511	0.592317306607464	118	0.69513789365046	117	0
10	Fp1-F3	454313	454393	80	6.62306655367983	3.91180828143221	21.5699606454067	2.86657371863377	27.2909065775355	0.437417927123183	111	4.12317158712289	110	0
10	Fp1-F3	563157	563214	57	6.66055789709529	3.75401732079076	23.7581514676641	3.14795612971045	23.7581514676641	0.595056548674975	157	3.63403188932955	156	0
11	F3-C3	86008	86093	85	5.24408561827206	2.86474313297483	18.2858815379043	3.35095173956215	18.6752932413232	0.37427378870759	112	0.628659049414272	111	0
11	F3-C3	399178	399258	80	9.04511440476205	4.3570640705323	37.2608669795017	4.30963248374758	38.1010317922893	2.21521017695326	136	2.6125765534472	135	1
12	C3-P3	151101	151147	46	13.1311573455604	7.42599052378127	42.749697385521	3.1267793082248	51.3304091910054	1.54549470257348	163	6.5669872229759	201	0
12	C3-P3	365112	365165	53	12.8525330011803	6.06684761900118	42.8919690160487	4.48798380949752	42.8919690160487	2.04838387037643	164	6.72352975614594	163	0
12	C3-P3	525421	525463	42	10.0140061936694	6.3502723362929	31.4673911442837	2.48674360554579	39.8885729573904	1.94230609028022	182	5.32757212787739	181	0
13	P3-O1	151101	151147	46	13.5960013704083	7.52203951547013	42.7005526123167	3.26701537431211	48.0333474281619	1.61065292728113	162	6.52805502853191	199	0
13	P3-O1	365111	365165	54	13.1466536297516	5.98398468020993	43.7097111101868	4.82669099048095	43.7097111101868	2.3413268129763	165	6.86796640487024	164	0
14	Fp2-F4	306785	306827	42	8.23625391332607	4.87682807527657	26.172628972174	2.85223012658395	32.4946477364868	0.661907958835764	174	4.47396122215468	216	0
14	Fp2-F4	399062	399118	56	13.5424952472104	6.73608431958569	49.8056518129163	4.0418701204248	93.5658566805879	4.05124824278099	61	6.96527601201643	89	0
15	F4-C4	399054	399268	214	8.03282908733681	4.77441925137119	53.147377842753	2.98011708424261	74.0830564188024	1.2467006757027	180	3.19716011270806	179	0
15	F4-C4	399370	399435	65	7.50216133115988	5.3979930834533	31.8197620829263	2.34866499647779	74.0830564188024	2.49287385045826	189	3.54248898329744	188	0
15	F4-C4	400361	400417	56	7.24802012767756	4.39828967608722	26.4106632433001	2.90492047931618	31.9402381955895	1.4733463649988	133	1.88417186857097	132	0
16	C4-P4	403054	403120	66	4.15560510637815	1.67083882683642	12.9420450701213	6.18585057322382	13.0887367181687	0.332857830319242	91	0.558514105114254	109	1
16	C4-P4	411011	411093	82	8.20813061006006	1.84251387128182	43.1671101597225	19.8457257112538	43.1671101597225	1.76941708410476	83	1.49451536577989	82	0
17	P4-O2	65063	65148	85	3.63464316166759	1.62859398659753	13.5788291510493	4.9807862608929	13.5788291510493	0.635282181940956	90	0.65879488599162	113	1
17	P4-O2	180794	180887	93	3.45490431306447	1.5198509653556	11.906708182678	5.16737571692552	12.669460091171	0.483434469325295	83	0.353355897417648	82	1
17	P4-O2	266600	266665	65	4.71058337608021	1.68830630500368	16.8758731655415	7.7847900683752	17.1840879996337	0.654278501566276	87	0.481794379142588	86	1
17	P4-O2	411008	411101	93	7.92115495769524	1.8237558291569	45.8190870491738	18.8644276212141	45.8190870491738	0.811798711631879	NaN	8.13567384508659	300	0
17	P4-O2	585865	585942	77	3.7128833161775	1.6663715132267	12.0498300337346	4.96453911229803	12.0498300337346	0.494327968064222	83	0.420968242672777	82	1
18	Fz-Cz	21647	21720	73	30.4426206079109	15.9778856115779	132.127121745346	3.63015739415366	168.008817796737	8.15795775166426	162	8.37798596040095	185	0
18	Fz-Cz	27434	27799	365	29.3223671201379	17.7633701769026	145.744780988706	2.7248796225264	145.744780988706	7.61643018041275	123	8.13367483732805	122	0
18	Fz-Cz	28836	28901	65	39.7296028226704	16.3812839251603	149.045607211805	5.88210227399636	149.045607211805	8.19120726808204	90	12.0279682548038	118	0
18	Fz-Cz	32684	32738	54	32.6071432439257	17.1308060388401	133.888059041987	4.31638144806879	139.591461373703	5.5046197929761	126	6.91671627174589	141	0
18	Fz-Cz	33304	33454	150	26.1170972627717	20.4191155064769	105.528080917866	1.89452202207863	139.591461373703	5.49594411099689	142	11.3025301915672	206	0
18	Fz-Cz	33571	33629	58	27.000505877647	20.6737435078108	99.5866248877343	2.04479696407015	139.591461373703	6.20550815950449	334	12.0008922365871	196	0
18	Fz-Cz	34082	34135	53	30.2531326778953	19.2347866485711	104.09186018529	2.88207119387607	139.591461373703	5.14687295566725	136	15.1786288724582	147	0
18	Fz-Cz	34243	34292	49	28.76682795404	18.9375933751567	114.31064292564	2.7529839290247	139.591461373703	6.65381059170288	61	10.6263064181652	117	0
18	Fz-Cz	38327	38383	56	22.1705119566273	18.1462682984625	81.1389725079064	1.72115903151687	170.798245702931	5.29140272288009	159	11.4953252512114	182	0
18	Fz-Cz	38487	38541	54	27.6621274213163	18.5664078268565	103.133645806325	2.54060987960983	170.798245702931	8.83918235172692	118	9.54601065182965	163	0
18	Fz-Cz	38894	38963	69	34.1713748754676	20.0977643889882	146.28851031597	3.25027480731737	170.798245702931	3.24132336626456	126	15.9277077432497	207	0
18	Fz-Cz	39380	39447	67	23.0182730956074	21.0757607320568	81.4253940016195	1.37673726485602	170.798245702931	3.97109355062326	143	11.7125811754252	142	0
18	Fz-Cz	39777	39948	171	25.2491288348823	18.0186376558123	112.970489599197	2.23309611023442	170.798245702931	11.0514128082235	95	7.68034845534698	94	0
18	Fz-Cz	43838	43892	54	22.207275980904	16.5169111741086	80.4942881004578	1.86318124479802	158.365918650423	4.80056510174028	175	11.3696200418812	174	0
18	Fz-Cz	44629	44674	45	24.8538775665624	16.0400621379439	95.1823055406578	2.46481248130978	158.365918650423	7.75056017268467	136	8.86170648403516	167	0
18	Fz-Cz	59787	59840	53	23.8352159390062	11.3563235092419	92.1710605028656	4.40516997023821	105.15142867765	2.56464788364488	113	11.3668139569085	243	0
18	Fz-Cz	68496	68542	46	22.4216121904668	20.0183520498931	85.8646856664378	1.40057724307484	184.729949690272	2.89389631926176	194	12.3277732125957	215	0
18	Fz-Cz	68721	68935	214	27.3439701314411	19.1315853066475	121.727310369072	2.06130674624896	184.729949690272	7.71476325185816	184	11.2449444734261	183	0
18	Fz-Cz	75272	75312	40	35.0268883070014	11.5670313148714	132.957433930071	9.16978794043771	136.629870856915	0.957372453810476	167	13.2719662767937	300	0
18	Fz-Cz	85556	85601	45	20.4969711776843	12.2058592086495	77.9928213542629	2.81995818461506	113.277060294294	2.72109222879833	213	11.4282144325668	212	0
18	Fz-Cz	90842	90936	94	32.7310294694837	15.097878372398	132.478038282085	5.36145412157	132.478038282085	3.76273826327213	120	15.3815179022895	201	0
18	Fz-Cz	91864	91961	97	29.41515619034	18.3574096587421	130.869037516699	2.82291446299095	133.497240286342	4.28031747890058	219	14.0124925489593	268	0
18	Fz-Cz	96364	96413	49	35.5455629405628	20.3728496981539	157.009179499984	3.15925385409581	157.009179499984	2.36453313745451	169	14.5829199676035	268	0
18	Fz-Cz	96525	96701	176	21.5605054864665	20.6201377254624	87.0697924585545	1.18055507436692	157.009179499984	6.36998462140538	155	9.92903835897879	154	0
18	Fz-Cz	97168	97217	49	23.8407533208326	18.706840574068	94.1198540207541	1.86887076411316	157.009179499984	8.32969975814806	154	12.9243285051424	188	0
18	Fz-Cz	97310	97360	50	24.5446545000766	18.0416974157711	80.3501313779057	2.17550356065056	157.009179499984	1.05994337334006	140	11.6142713397145	216	0
18	Fz-Cz	100990	101044	54	27.5089308181313	13.9920114627829	102.174578893218	3.86533480852553	128.438451231493	5.49011219888123	171	13.9412927375007	170	0
18	Fz-Cz	102137	102283	146	29.7912566435469	14.47836824804	142.788440069355	4.33889169904956	142.788440069355	6.0417490828476	119	13.2142256414695	127	0
18	Fz-Cz	102415	102459	44	20.7373206787853	14.6547668690656	70.5055885330841	2.66454888073366	142.788440069355	6.73261231377855	145	7.11796806863632	176	0
18	Fz-Cz	106578	106656	78	26.7505197763226	16.0623508918138	108.455896770366	2.90660567582666	124.223280288751	7.36394146460334	142	9.64040630026262	141	0
18	Fz-Cz	107343	107407	64	24.6863057619864	17.7784286307732	93.5381888705855	2.03380197987117	124.223280288751	5.79202449664126	174	9.81810371897414	217	0
18	Fz-Cz	117015	117062	47	27.1255812340549	15.5441311940321	106.945893656319	4.45916046995489	148.246946683267	5.66186943327131	138	8.41244888094533	137	0
18	Fz-Cz	117169	117225	56	33.4656769511538	17.1686313549108	143.498164283181	6.37999021999984	148.246946683267	7.31771936228377	189	18.8439469030999	188	0
18	Fz-Cz	117914	118299	385	29.228426205872	14.8653365817593	131.571088352785	4.72256609567908	148.246946683267	7.23005649269047	167	10.6494418657363	166	0
18	Fz-Cz	142812	142871	59	19.7688132604247	13.1600840430517	71.7248162896329	2.25654434435603	112.875633178156	6.4125514245796	171	6.52613249522884	185	0
18	Fz-Cz	148188	148230	42	31.7883140740756	13.0425975011427	116.973266013992	6.81080934735464	127.739059463814	1.69648900127328	129	18.1007252885679	220	0
18	Fz-Cz	149177	149225	48	32.1842212430429	17.186709139436	123.041664649412	3.92113601997083	146.368629574089	7.36422977758466	95	7.97382270408843	128	0
18	Fz-Cz	150120	150176	56	28.2229319124443	15.1969609599962	97.2277492924884	3.77982712653153	146.368629574089	2.72216497940927	151	16.2113442128636	231	0
18	Fz-Cz	151695	151768	73	35.5666587686874	11.3982885295228	143.575726238102	9.73658913529666	178.961782294654	7.63643443848165	95	12.2831174013012	115	0
18	Fz-Cz	183288	183364	76	29.8274930404918	16.8062546332929	110.892282637247	3.14986272788185	153.77894351555	7.02917228623219	97	9.22159943798034	136	0
18	Fz-Cz	187562	187606	44	17.7019090264855	11.4048236423819	56.0534655717677	2.4091456723888	109.494645433587	1.61196284834154	154	10.0484936004582	220	0
18	Fz-Cz	192921	192980	59	34.1885819940159	12.9251518251935	129.831530878921	7.60225415844385	129.831530878921	2.06590073800596	142	9.52019032524487	300	0
18	Fz-Cz	193751	193805	54	25.2522314070626	14.6143883291541	100.294569573504	3.46495486684222	129.831530878921	9.11372847588302	144	9.81817786097968	186	0
18	Fz-Cz	197714	197768	54	18.9526594521753	19.1344991658047	67.4010745299031	1.17167069566868	152.519024088539	5.42067669735132	132	7.02574821960247	131	0
18	Fz-Cz	198675	198881	206	33.7518273265104	20.3908713112652	159.946289500409	2.95948940301302	164.501048905314	4.67100517779113	131	14.7242256285322	210	0
18	Fz-Cz	199021	199141	120	23.9981962675216	21.5023089469805	117.111443614425	1.59886002871571	164.501048905314	6.52315743400261	112	7.07352983610432	153	0
18	Fz-Cz	199220	199286	66	25.7100930529328	20.735716554506	95.0703024486466	2.08865363920172	159.946289500409	11.5863020273679	83	12.8278275818449	82	0
18	Fz-Cz	199379	199433	54	27.8636583767779	20.0968097873761	119.355662154938	2.72085755309675	159.946289500409	3.27202330732889	127	14.6446059022144	211	0
18	Fz-Cz	203532	203753	221	28.4685148365142	16.6091754572406	158.539745298279	3.15924036809682	158.539745298279	5.89420909536274	229	10.2134996189804	231	0
18	Fz-Cz	204617	204659	42	33.9938593594971	15.4967839436898	133.755662520665	5.62332631907705	139.300114918247	2.94281297462771	159	17.8515009291058	210	0
18	Fz-Cz	208428	208876	448	28.9378506532339	21.165558556085	139.763243514481	2.49683225359888	152.714822032998	8.24041880041117	183	12.3119270253647	182	0
18	Fz-Cz	209183	209229	46	36.0589800645063	26.6164877494213	120.521559086244	2.19621935001895	165.569690601408	5.01389400681242	159	17.8121525902057	158	0
18	Fz-Cz	209483	209678	195	32.8348299729657	26.3885862968038	140.517792985163	1.66870284541261	165.569690601408	4.35784681487837	144	14.2413549804792	242	0
18	Fz-Cz	209767	209955	188	25.7090839599207	26.4831081517021	105.464852028916	1.08067280743947	165.569690601408	7.17287696948604	83	8.80502303550089	82	0
18	Fz-Cz	210172	210221	49	29.641931972704	24.889403067649	115.154238035321	1.63697977447178	165.569690601408	7.93771015401545	151	14.2310169270277	150	0
18	Fz-Cz	213518	213632	114	33.1301721304585	20.8189612040422	141.440067910729	3.1772921990491	154.542412772823	4.77046311012649	327	14.596597660999	193	0
18	Fz-Cz	214087	214189	102	29.1455257481425	25.0095716238407	123.266311571165	1.85067492148335	163.73823178103	9.31572141377093	103	8.06095775955501	102	0
18	Fz-Cz	214361	214410	49	40.3757771957578	26.3054745426149	152.084171609621	2.86589963368476	163.73823178103	10.8368046765366	183	13.1187496945469	182	0
18	Fz-Cz	214571	214920	349	31.3565472076749	24.7635326401554	151.412674553509	1.85234063806298	163.73823178103	5.59013102674213	157	11.8308414443329	219	0
18	Fz-Cz	215083	215136	53	27.9749217903435	25.0867499058579	98.9862223364626	1.57137776059949	161.279990617828	5.16868461323715	161	12.4070512141657	183	0
18	Fz-Cz	218687	218757	70	23.1770176392061	17.8921779467443	82.7254920715501	2.01175697273927	141.1854384279	4.93157674318902	153	11.4814358053456	152	0
18	Fz-Cz	219359	219684	325	24.3487512747787	17.0780671008867	111.145375136965	2.09770587154081	141.1854384279	5.22123316399536	119	9.43754680861366	215	0
18	Fz-Cz	223469	223527	58	29.4642836729322	14.3997429060861	106.169793714232	4.50689030751652	110.19509183737	7.45411161029057	169	16.2909021840495	168	0
18	Fz-Cz	223802	223885	83	23.3079481539264	15.279007502815	92.9030547214138	2.53675803142574	110.19509183737	4.97838975710891	114	11.1600083310523	148	0
18	Fz-Cz	234498	234556	58	27.9059665584331	13.2881956412725	102.563867314291	4.58191255007669	105.401679893806	4.05894896872303	140	15.6212305932549	148	0
18	Fz-Cz	234892	234955	63	19.4089447464383	12.8311137881818	69.5235285405486	2.5807037890584	105.401679893806	5.77999102469774	147	6.5669584529513	171	0
18	Fz-Cz	252869	252920	51	25.2855861924848	15.5483926455538	96.6045018939375	2.64469170925358	119.201219422652	3.53540982289013	186	13.3981604773497	209	0
18	Fz-Cz	269787	269920	133	22.7070435482375	12.8851881851462	100.499574439483	3.33339116806453	102.442005642838	3.12736560817933	140	11.5037481439865	208	0
18	Fz-Cz	270867	270919	52	24.1433121534296	11.3943834283575	86.7916009587938	4.75883928584641	101.154794993786	6.36135150754087	179	10.7445776020093	178	0
18	Fz-Cz	280661	280706	45	20.3780271063056	11.6524913068498	71.6174160339492	3.05834655672969	93.3120877783731	1.34601243733975	141	10.6034020412338	213	0
18	Fz-Cz	296450	296635	185	28.8431259924092	14.680843243479	123.130758065539	3.85995864012247	127.092983424027	3.95980296232187	164	10.6329299485851	220	0
18	Fz-Cz	311632	311689	57	23.1592935058752	17.0453552976185	91.733855140012	1.84602890569207	131.624605758302	3.00659619572699	161	10.9756503916039	202	0
18	Fz-Cz	312733	312781	48	36.7526574260599	15.3114500739202	143.176574795122	5.76162313458135	145.828377624773	7.13435839764492	134	18.1811050006723	154	0
18	Fz-Cz	316957	317018	61	25.1031214115421	14.532068310672	95.8978225538841	4.01208457823305	111.330636261121	7.57879520279397	166	7.85048863775053	165	0
18	Fz-Cz	317272	317469	197	26.5268120537086	12.6105323220404	109.443154888426	4.88820836767733	111.330636261121	5.7149334330635	166	10.5542505726561	165	0
18	Fz-Cz	320424	320465	41	34.7803713413118	14.7226564758914	126.547391757102	6.3958997398015	129.559429952194	2.95646515746927	150	15.921100988037	253	0
18	Fz-Cz	320803	320861	58	26.4362944131687	15.275184384037	94.0167283716394	3.49632922381668	129.559429952194	6.83918486294314	155	11.5407074042173	156	0
18	Fz-Cz	320970	321034	64	24.008450413135	16.4608863191942	89.2892552245612	2.69445979658485	129.559429952194	5.91330084310393	184	10.96851259832	183	0
18	Fz-Cz	321905	322076	171	24.9253044027235	11.9073927498054	116.002716121419	4.88472765262795	116.002716121419	7.58378873013777	140	9.08564225244744	178	0
18	Fz-Cz	341719	341803	84	20.3456108197958	11.4842279913787	83.2527398888236	3.13861361378647	99.1096013483159	2.82620339322467	142	11.2838462230953	141	0
18	Fz-Cz	363434	363481	47	24.5687527942469	13.0472906054346	89.9808548135824	3.54589237572584	101.647057850806	3.25302530451127	132	12.3729545675612	197	0
18	Fz-Cz	385041	385087	46	25.3098989008463	11.080830081056	92.5247478745814	5.2171849200297	92.5247478745814	2.19783622450919	190	12.9039202706302	259	0
18	Fz-Cz	414915	414966	51	24.3947014497798	20.3361067352328	80.0900993503983	1.58393834324264	176.34428881591	5.308898847982	190	12.0335162468377	189	0
18	Fz-Cz	415263	415322	59	24.1213147587728	21.0164600571259	98.9977216229588	1.43118025619128	176.34428881591	10.2792364589209	102	7.44710217936928	101	0
18	Fz-Cz	415411	415502	91	32.6197032272902	20.2698523269821	129.506984280172	2.6577255658819	176.34428881591	4.18131019386595	98	9.70232374885889	124	0
18	Fz-Cz	421159	421202	43	16.4596956081194	10.2979670244955	55.7254229507675	2.55470410181072	73.9846056132052	1.05997478098694	147	9.14908081312735	208	0
18	Fz-Cz	431620	431664	44	23.1263293514312	14.5420888410744	83.1634521052024	2.52906403451215	123.121365370128	3.76370905785278	96	11.424975289765	130	0
18	Fz-Cz	432748	432801	53	32.1541749183754	14.0006553184911	115.378628372789	5.27446011113085	126.899193775391	3.62098571995667	165	17.3141468122959	164	0
18	Fz-Cz	442260	442468	208	30.2518932418577	17.7204468509687	130.983189491103	3.48513191928797	159.084815781041	8.13779580826644	162	11.387368130318	161	0
18	Fz-Cz	442878	442922	44	17.5911134193137	23.6433178317036	54.2902003111199	0.847554331375313	159.640946509409	1.1142349448352	193	9.92030621752683	220	0
18	Fz-Cz	443061	443207	146	26.0765160017647	23.1831713311143	104.571433517141	1.83976985626586	159.640946509409	4.09744563586465	177	11.4012356193081	176	0
18	Fz-Cz	443420	443898	478	28.9494043533388	16.849235129857	151.770292690799	3.64220790421194	151.770292690799	5.86711702026915	163	9.97913351820245	209	0
18	Fz-Cz	554092	554158	66	27.3208459474475	12.3057473385053	108.526522421257	4.92915298103647	120.06629919031	3.15711270961251	181	10.3893147350724	223	0
19	Cz-Pz	22584	22634	50	23.1660707259997	18.6825777320208	92.2521305651858	1.53755677066805	164.992319078515	6.06485612175973	61	9.57176564168587	91	0
19	Cz-Pz	27262	27343	81	27.9520047143396	19.430840987629	106.695831857548	2.85728773961794	145.387332185311	5.2926839630211	118	11.8979158957763	117	0
19	Cz-Pz	27435	27799	364	29.0502904917921	17.7079588244797	145.387332185311	2.87463484971093	145.387332185311	7.65926009085075	121	8.25195093084828	123	0
19	Cz-Pz	28836	29001	165	34.3938886470059	15.0372864574003	149.229459744335	5.23146851210035	149.229459744335	8.0645252434069	106	9.9120769070561	137	0
19	Cz-Pz	33304	33454	150	26.4869275154767	20.5349469519409	106.130580053992	1.7508301878714	140.100676957373	5.57121470566768	134	8.26871334656737	206	0
19	Cz-Pz	33571	33629	58	26.9445142708711	20.8074728112335	99.4903061597326	1.82120163880895	140.100676957373	6.08612052027152	334	12.127532704184	195	0
19	Cz-Pz	34243	34292	49	29.2610122123697	19.0138817463138	117.844645526812	2.66872371966803	140.100676957373	6.82544510877959	61	10.6427001129063	117	0
19	Cz-Pz	38328	38383	55	22.2926911703042	18.0745728667336	81.9481790468992	1.86367491873171	172.097149193554	5.13313946306474	160	11.458652287904	182	0
19	Cz-Pz	38487	38628	141	25.5588572515889	18.0982439344572	119.063233490726	2.33315217631367	172.097149193554	4.2195950509935	212	10.5084302618254	209	0
19	Cz-Pz	38894	38963	69	34.7358624613115	20.004349224215	149.825509692438	3.51120121231099	172.097149193554	3.50755529020024	127	16.1172581126679	207	0
19	Cz-Pz	39380	39447	67	23.3715191104441	21.037753526144	84.745117126576	1.51408408401203	172.097149193554	3.97829246243937	143	11.9180250128349	142	0
19	Cz-Pz	39777	40076	299	23.9193823177799	17.2355595318625	111.044931146653	2.25452410345978	172.097149193554	9.4081174481215	97	7.62372327866487	96	0
19	Cz-Pz	43837	43892	55	21.5385905810898	16.6337146279804	76.0290481229182	1.95936553813476	157.951171587434	4.64673252552363	175	11.0802718222866	174	0
19	Cz-Pz	44176	44217	41	29.5110639629603	16.5080119201779	102.043550684168	3.63313215996174	157.951171587434	7.35818117530277	129	8.98473234937778	128	0
19	Cz-Pz	44297	44345	48	36.364638348966	15.9950447472912	139.22904825851	5.60016571779051	157.951171587434	9.54351265794446	115	10.630034230554	141	0
19	Cz-Pz	59787	59840	53	23.590288074729	11.3586691064022	90.8598816220893	4.31331913878355	105.574354739438	2.88673192436461	228	11.1340790232366	244	0
19	Cz-Pz	68495	68601	106	35.6581251969726	18.6852600738934	172.790801234233	4.03530881605117	183.942579792467	10.0743813301622	99	11.651291966402	132	0
19	Cz-Pz	68721	68782	61	27.3575406610177	20.33104673489	117.781445497223	2.17617791785558	183.942579792467	5.90059152281977	180	11.368610053901	179	0
19	Cz-Pz	68880	68935	55	32.4223990757911	20.3035056131047	119.133075161116	2.99803131771293	183.942579792467	4.56271205211474	186	16.0944103760461	219	0
19	Cz-Pz	79409	79483	74	28.8232140318361	11.5149717257943	103.709787782326	6.26554800116426	103.709787782326	4.97802064879191	90	9.17659680417068	112	0
19	Cz-Pz	81618	81659	41	19.7045535710991	12.2857217810375	67.7089587970909	2.57236059037867	133.817267816968	0.380270225126611	219	9.04872720255462	263	0
19	Cz-Pz	90842	90936	94	32.5566293238523	15.0754985910363	137.221644734877	5.18436402879272	137.221644734877	3.55251336748728	119	15.2066527146612	200	0
19	Cz-Pz	91864	91911	47	33.990913811056	18.5598571051487	132.640360996962	3.73829368940288	137.221644734877	9.48303715461748	147	17.6057569331371	166	0
19	Cz-Pz	92484	92533	49	22.6128422818418	16.2216682735216	75.6395170656167	2.11996670748288	132.640360996962	5.42221938166975	161	11.3264007524295	185	0
19	Cz-Pz	96001	96046	45	27.2614903016383	18.7277255178534	95.790019716728	2.38282268690809	163.364495506736	8.25033736077865	127	8.97613298312754	170	0
19	Cz-Pz	96365	96413	48	36.9300783790525	20.4749302788381	163.364495506736	3.39602557677231	163.364495506736	2.2066810281797	165	14.9938174369203	269	0
19	Cz-Pz	96525	96701	176	21.435382435124	20.7723788247241	85.2171766208862	1.16339535342741	163.364495506736	6.17254302940877	155	9.81366310892166	154	0
19	Cz-Pz	97171	97216	45	24.5696822479023	18.6853116180764	94.5572670491094	1.94665886431687	163.364495506736	8.59641489739079	153	13.2496932227246	187	0
19	Cz-Pz	100803	100856	53	17.8145301950896	13.9968093913686	69.2141487493796	1.77482311403003	123.39830263341	6.27416076145316	91	7.8637386903707	90	0
19	Cz-Pz	100990	101042	52	28.7069706871884	13.8451928869312	106.073531912916	4.37874948303559	123.39830263341	5.55937246842592	172	14.2035913420811	171	0
19	Cz-Pz	102137	102282	145	29.5216620540211	14.3230450301724	140.991597638691	4.2482581003587	140.991597638691	5.96192218268861	119	13.1501725592007	127	0
19	Cz-Pz	106578	106656	78	26.8372919991386	16.0635871026696	109.42298063217	2.93223112601569	123.936898565784	7.47013654422836	144	10.0616627578182	143	0
19	Cz-Pz	107343	107407	64	25.0495036115605	17.786664514802	93.6728027959365	2.14882326787127	123.936898565784	6.37823466091711	83	9.51116273403235	98	0
19	Cz-Pz	107696	107736	40	25.5921624101247	16.8553492478448	105.624768370837	2.40291667599622	123.936898565784	4.12589516779402	193	13.9267624734125	248	0
19	Cz-Pz	117015	117062	47	26.4789171813505	15.5533980155911	103.637049492137	4.42614630940029	147.833780021237	5.52399694474836	139	8.27164267925964	138	0
19	Cz-Pz	117149	117226	77	31.5350498184405	17.0187545684696	144.818600221941	4.27354658644634	147.833780021237	6.83081072733878	185	16.4727095207177	184	0
19	Cz-Pz	117914	118053	139	29.7570009856296	17.8819695203104	125.524278638409	3.42577458707725	147.833780021237	5.19457929422768	159	12.7809003607662	197	0
19	Cz-Pz	118239	118299	60	31.2816936661013	16.2771613678646	124.808556533627	4.48381598400452	140.591260583383	4.76951688314423	157	14.9452558878329	156	0
19	Cz-Pz	126742	126782	40	26.4720588806818	11.9698294530042	87.3626353572228	4.89102086017761	95.7277725589469	2.30145001279164	174	14.928011191608	216	0
19	Cz-Pz	142829	142872	43	21.5394550267485	13.2305160300083	73.7037324532733	2.65042705002536	115.564651049663	7.47422185256808	188	12.942127040292	187	0
19	Cz-Pz	150120	150176	56	28.688296557267	15.1040004523168	97.4016738852732	3.60765951963339	148.367326223894	2.62514131889408	152	16.3753698606117	231	0
19	Cz-Pz	151695	151769	74	35.3522827778765	11.3721129165862	144.448607938055	9.66390380561773	179.432859962095	7.79139991443527	94	12.3018657718432	114	0
19	Cz-Pz	161972	162016	44	17.1054875639123	9.06879188006597	62.066524820643	3.55772228668679	70.105463362991	2.81465375860362	191	9.30408573564215	226	0
19	Cz-Pz	168053	168094	41	30.73370436946	15.3108383714227	105.836259673171	4.02932107234785	130.443269707396	8.60220707505153	139	15.1415299206873	165	0
19	Cz-Pz	183288	183364	76	30.6608684628309	16.797114294852	116.215077312962	3.3954777429142	149.26344668774	7.04221326697041	96	9.59517603283209	136	0
19	Cz-Pz	184163	184214	51	21.9058866033693	16.0084159950955	78.2103405727837	2.09651681755442	149.26344668774	4.57070127413768	156	11.0159896673664	155	0
19	Cz-Pz	192921	192980	59	33.970561461702	12.8875215699355	128.413434195674	7.51223607595585	128.413434195674	1.74478995551248	142	9.49673563245257	300	0
19	Cz-Pz	193752	193804	52	24.9853658276618	14.5689446597633	97.0971543426856	3.40891860000406	128.413434195674	9.06691358756705	143	9.91511107554846	185	0
19	Cz-Pz	197714	197767	53	19.5268898934035	19.0693806214996	70.2615915870385	1.24559959758348	152.3903335917	5.61250954493884	132	7.39733892705332	131	0
19	Cz-Pz	198675	198881	206	33.3817922508915	20.5307599722104	158.62467369901	2.83608763620023	162.022668730436	4.81056172097742	130	14.5297089283583	210	0
19	Cz-Pz	199021	199286	265	23.0817118842043	20.8389709778834	119.561927629227	1.55457624784014	162.022668730436	6.20594759087156	150	10.163955369464	149	0
19	Cz-Pz	199379	199433	54	27.7095413561298	20.2016645158454	117.044457043725	2.64168709179088	158.62467369901	3.12468979055549	128	14.6447665294359	211	0
19	Cz-Pz	203544	203689	145	29.7742268387521	16.6832737744696	159.626875393572	3.40887430121786	159.626875393572	4.69757837737895	155	11.0755583350394	211	0
19	Cz-Pz	204617	204659	42	33.3166623366166	15.5088848607154	130.518476177842	4.96014183536815	140.128718717597	2.92887865177608	159	17.5814633690061	211	0
19	Cz-Pz	207821	207865	44	21.2539392981575	17.9220746658547	68.2653477668025	2.61410195524302	152.833800335954	1.52619169618086	117	10.1033806561117	197	0
19	Cz-Pz	208428	208877	449	28.95954770217	21.2087898974614	140.740555438831	2.32374927567476	152.833800335954	8.3145693006614	183	12.2533326478695	182	0
19	Cz-Pz	209483	209678	195	32.9825133336297	26.4393883895075	138.186576541689	1.60063877925844	168.202222373426	4.05747625813068	144	14.2728668659522	242	0
19	Cz-Pz	209767	209955	188	25.7834726414904	26.5920228482435	103.648182016732	1.03365021038729	168.202222373426	7.16541633394133	83	8.80641589461112	82	0
19	Cz-Pz	213572	213632	60	39.6157044132247	21.0702956575639	141.991421637702	3.79638826321648	161.820314691185	5.24569172859316	192	22.1772554340939	191	0
19	Cz-Pz	214361	214410	49	40.4466231556269	26.3122097953838	151.720781620316	2.67771481594569	161.820314691185	10.6949333044069	184	19.2829128203781	183	0
19	Cz-Pz	214648	214919	271	30.9102146840454	24.666888462531	151.412182260561	1.65958446500351	160.047580332386	5.0836953772156	162	12.2976662041092	262	0
19	Cz-Pz	215084	215136	52	28.4804305890456	25.1376787388949	99.1721983748594	1.47602343598929	160.047580332386	5.32245519577647	159	12.5213406174126	183	0
19	Cz-Pz	218686	218753	67	23.8178643787742	17.8263660470519	86.6255555696395	2.17500608593615	140.194878795141	4.72485998870462	153	11.5996746343276	152	0
19	Cz-Pz	219358	219684	326	24.6816119502368	17.0415194407846	112.672875184602	2.17047004640018	140.194878795141	5.34612424722699	121	9.55507630602339	214	0
19	Cz-Pz	223468	223528	60	28.2225516390489	14.4128423059737	102.330037900496	4.31864315912469	113.071837788086	7.13531169714784	169	15.8111241597841	168	0
19	Cz-Pz	223802	223885	83	23.8528496341688	15.175811319956	97.3527975976855	2.76770450480153	113.071837788086	5.04201552275789	114	11.2633767314059	148	0
19	Cz-Pz	223977	224017	40	23.0854227803165	15.633884625385	76.9877418620895	2.51899656902141	113.071837788086	2.48209624252927	157	7.8836737356194	195	0
19	Cz-Pz	228438	228478	40	24.1289328499193	11.499270456533	82.9734169951217	4.40286787185538	94.5785566181519	7.18357278870506	132	8.44488454601788	166	0
19	Cz-Pz	234892	234954	62	20.0571899380694	12.9506433359514	71.7827241914174	2.39859811758945	106.054035001211	5.82756737509979	150	10.3332432459483	172	0
19	Cz-Pz	252868	252925	57	24.8868726605165	15.4330870396095	95.7929386103374	2.65681488087257	117.176443967092	2.1573770123791	148	12.7770932699909	206	0
19	Cz-Pz	253468	253509	41	21.773497700547	15.2488436271627	75.9829345786142	2.14543289949237	117.176443967092	6.64997211262167	140	7.39518659423521	179	0
19	Cz-Pz	269788	269934	146	22.0840196074894	12.619572727588	103.99431763278	3.289162635411	103.99431763278	3.06953933956044	141	10.8214698065838	206	0
19	Cz-Pz	270867	270919	52	23.7176131286117	11.2338345467534	85.9339305993005	4.74010789336735	96.8554237192037	6.52886564024061	177	10.6324166449836	176	0
19	Cz-Pz	280661	280707	46	19.6873540397987	11.6502847767975	67.3195195064806	2.85562792396688	93.0908246791371	1.91890472856536	144	10.3842618153814	213	0
19	Cz-Pz	296449	296542	93	30.6693777948824	15.693981505388	118.924585103669	3.81894723288279	129.198899663529	3.73780710330147	160	11.600785785229	220	0
19	Cz-Pz	306578	306625	47	19.7258744419574	11.4843574618221	68.2972095368051	2.95025207949913	89.5539292104742	5.62030117232474	152	5.6334522794604	175	0
19	Cz-Pz	311632	311689	57	22.9734098702438	16.9724815855042	92.8869925209689	1.83214663615167	130.943953685045	2.86760555769194	163	10.9035565816868	203	0
19	Cz-Pz	316958	317017	59	24.7917663542145	14.6220479720162	89.115679094366	3.85608097172526	112.172308061436	7.2599547892475	167	7.50753005713902	166	0
19	Cz-Pz	317272	317469	197	26.6271188473908	12.6272293183215	110.549548076975	4.87726583761836	112.172308061436	5.76820190852404	167	10.6653330589421	166	0
19	Cz-Pz	320803	320860	57	26.1715770505111	15.3027356264349	91.3487550189771	3.08675597135043	126.971847397079	6.58016633371064	155	11.4180213890476	157	0
19	Cz-Pz	320969	321035	66	24.2544196314651	16.5075487270671	94.2242405584707	2.3556035041198	126.971847397079	5.86015461631113	185	11.1901427932914	184	0
19	Cz-Pz	321905	321972	67	23.4105219885231	13.2380246005148	83.5256844506016	3.40555176974037	114.350846562059	6.51655883956282	146	7.56985478227319	177	0
19	Cz-Pz	341719	341804	85	19.8882589702341	11.4471183778015	80.873196743586	3.01856953631382	99.3383896583909	2.93054494917685	143	10.9332870367603	142	0
19	Cz-Pz	363434	363482	48	24.1941464026482	12.8271616858931	87.6412813552163	3.55761928401549	97.5030991167117	3.18070782022023	134	12.1150061604432	196	0
19	Cz-Pz	385030	385087	57	23.2881665839892	10.9761575183556	92.2840553704806	4.50163144845013	92.2840553704806	1.88385866509484	187	11.3036355628037	258	0
19	Cz-Pz	414915	414966	51	24.5794670656294	20.2840179295078	81.2542102358748	1.68423128879762	176.13845275154	5.00554028875966	189	12.0720936593727	188	0
19	Cz-Pz	415263	415322	59	24.3838577985053	21.0194747353385	98.4299168144151	1.50968614993259	176.13845275154	10.137177733461	102	7.58104636202593	101	0
19	Cz-Pz	415411	415502	91	33.0634047181396	20.2377724033099	130.917719935794	2.82432916633661	176.13845275154	4.10793798050528	99	9.51130003252828	124	0
19	Cz-Pz	415662	415748	86	25.1311879699111	20.6279856903296	105.600294409738	1.65989353557712	176.13845275154	5.99358102552021	122	10.2883827855071	121	0
19	Cz-Pz	432748	432801	53	31.9133425275495	14.064526815344	113.928288838966	5.14866145607534	125.102123618114	3.66547013264424	165	17.0969693512609	164	0
19	Cz-Pz	442260	442468	208	30.161966845821	17.7258009098759	128.435148012667	3.20769980158389	161.325815099133	8.33542803020428	162	11.4448230273055	161	0
19	Cz-Pz	442878	442922	44	17.6711968978724	23.7327981332564	54.9220624630786	0.710359329772987	163.304784960815	0.872024764547546	189	9.94925548531572	220	0
19	Cz-Pz	443061	443207	146	26.2878051679427	23.2559813403956	105.151116448978	1.54915749803093	163.304784960815	4.2667300003556	177	11.4387939416189	176	0
19	Cz-Pz	443668	444084	416	26.1269642974487	17.0202705298663	151.979094783671	2.66133226059516	158.509586930322	6.93498609214575	180	8.54151006412655	179	0
19	Cz-Pz	554092	554139	47	23.4666055939056	12.5537480925795	89.4094651985869	3.49424802912846	118.207501528691	3.69475138505993	139	10.8033747741676	214	0
20	Fp1-Fz	29496	29577	81	5.50884859613383	2.47053903017061	20.9304154763497	4.9720814481516	20.9304154763497	0.558837144403516	102	0.565423764954178	105	1
20	Fp1-Fz	182353	182423	70	5.00859860074312	2.43835552100668	17.0460860077812	4.21928051965942	17.0460860077812	0.641923843373546	115	0.67542653716017	114	1
20	Fp1-Fz	239546	239624	78	4.27720635761033	2.27982946200642	13.5932806192165	3.51978133514404	14.2657530826295	0.152458996195485	NaN	3.0219697373393	300	0
20	Fp1-Fz	399149	399264	115	9.33803258587568	4.15180887820138	44.5498369887722	5.05866667290877	44.7071071195189	1.86377589868896	83	1.87234030207407	82	0
21	Fp2-Fz	306860	306906	46	7.75360932081922	5.02700313594509	25.98119799936	2.37897302027678	33.0615731679897	1.60363051494224	179	4.21135954576584	178	0
22	F7-F3	399180	399277	97	9.20780511154777	4.41723376116134	38.6969728490231	4.34521701591202	38.6969728490231	2.85365388801803	86	3.38384706436747	85	0
23	F3-Fz	399064	399253	189	7.90954986384318	4.18765578733722	35.8602073830675	3.74331614330905	35.8602073830675	1.24935073834045	186	3.12091598309711	186	0
23	F3-Fz	399925	399995	70	6.31797470140991	4.81818752606673	22.1780742581766	2.09156235561615	35.8602073830675	1.26927798160417	117	1.6466690566231	116	0
25	F4-Fz	399154	399268	114	6.95800267630746	4.90717768414676	27.4350128711315	2.17739082136186	71.1950506479788	1.24940122692988	302	2.93167582070327	192	0
25	F4-Fz	399368	399425	57	7.52376027063389	5.17124385796011	28.8832576346496	2.39917819573345	71.1950506479788	2.88055293522221	190	3.13854202074806	189	0
25	F4-Fz	399954	400005	51	7.40822217176932	5.41493567417707	26.6595328844098	2.08293587366783	71.1950506479788	1.23296798912713	164	1.23532409330988	167	0
25	F4-Fz	400361	400418	57	7.40709893271319	4.25506119276056	25.4128647388252	3.44799302921521	31.8003570255147	1.62348712340473	135	2.01452478303861	134	0
27	C3-Cz	21647	21703	56	31.9707559505629	15.8048376219116	132.958296002672	4.17890457638897	166.310765475148	6.01864184482042	164	16.0637597443158	182	0
27	C3-Cz	22641	22688	47	21.4772080441258	18.4162448017159	84.1331509171575	1.44543441151844	166.310765475148	2.66195249885719	61	11.9131672817049	82	0
27	C3-Cz	27262	27344	82	27.5111311746575	19.5445879143899	106.606988264209	2.76436523072817	148.838353712135	5.45921983402639	118	10.1609868443641	117	0
27	C3-Cz	27434	27799	365	29.4115774337323	17.6442357720594	148.838353712135	2.9621801860583	148.838353712135	7.64776687292333	121	8.33334173382213	121	0
27	C3-Cz	28837	29001	164	34.2015337076525	14.9170647253593	143.685882718327	5.25683583908822	143.685882718327	7.94045992814012	106	9.63804450230842	137	0
27	C3-Cz	32684	32738	54	31.8793784044458	17.1872763830056	130.283778589136	4.09123792355765	139.491942537819	5.12825585808627	124	6.78067137598002	141	0
27	C3-Cz	33304	33454	150	26.3139968588367	20.4232847999736	105.593726406264	1.91071184151708	139.491942537819	5.69817133585669	143	11.3726204837345	206	0
27	C3-Cz	33571	33629	58	26.5530705690496	20.6640345084771	97.4423198593161	1.97731973685533	139.491942537819	6.15068576433753	334	11.8761640975348	196	0
27	C3-Cz	34082	34135	53	29.734166573578	19.2501548824762	103.547901290132	2.78778238036061	139.491942537819	5.11500986476628	134	14.8872010003718	147	0
27	C3-Cz	34243	34291	48	29.5679191127161	18.8816205149876	117.409179560999	2.92356169050558	139.491942537819	3.57917453907393	182	11.0226997148453	231	0
27	C3-Cz	38327	38383	56	21.9604553390639	18.0576630294732	81.4539303319994	1.7180818206578	170.368045808097	5.23251851111515	159	11.2845383104242	182	0
27	C3-Cz	38487	38542	55	27.9510117000852	18.4619224484805	105.597853118055	2.64022043416206	170.368045808097	9.05581560301997	164	10.0515210478401	163	0
27	C3-Cz	38894	38963	69	34.4319210919606	19.988760881084	147.099191694974	3.3530156394967	170.368045808097	3.42535587539168	126	16.1016404684582	207	0
27	C3-Cz	39381	39448	67	23.3564318986811	20.9683919398046	83.56800544111	1.44063135636578	170.368045808097	4.07036338159319	143	11.9117004999049	142	0
27	C3-Cz	39777	39947	170	25.1390669091343	17.9619101952659	112.996896603675	2.24064584226116	170.368045808097	10.9447350082177	95	7.61592995535991	94	0
27	C3-Cz	43837	43893	56	21.4977668177115	16.6858745160267	78.7673806338834	1.70960020596397	157.557340660114	4.59100959249617	174	11.0201853314437	173	0
27	C3-Cz	44629	44674	45	24.9410449527931	16.1728525163201	94.6633476553171	2.43297916370644	157.557340660114	7.70686689281445	137	8.70456057060258	168	0
27	C3-Cz	59787	59840	53	23.7751313164296	11.3158610327422	90.6572193596772	4.41438937640275	104.732075347929	2.45003049428977	113	11.0610201189549	242	0
27	C3-Cz	68496	68543	47	22.2716912479965	19.8447907628681	84.9190299576532	1.40154026221159	182.585923355449	2.81251587478017	194	12.4720904973095	215	0
27	C3-Cz	68721	68935	214	26.9271609777268	19.0222997101384	122.84444131215	2.02224318898716	182.585923355449	7.81377875542384	184	11.0645209883786	183	0
27	C3-Cz	75272	75312	40	35.0772786382489	11.688189082317	130.730162007286	9.00652643206033	136.270056674104	9.51256682287286	122	13.4860650577726	164	0
27	C3-Cz	79409	79484	75	28.2965643912298	11.5399796247882	102.043886115452	6.01253107867374	103.322953852894	4.51071218214264	89	9.239622553109	112	0
27	C3-Cz	85558	85601	43	19.7866752299214	12.2794150136386	74.8391765673888	2.59651177027483	117.055938560935	2.25945243095643	212	11.212951809371	213	0
27	C3-Cz	90842	90937	95	32.1942198345708	14.9760335147432	136.079312389374	5.26825489621275	136.079312389374	3.32722506274872	120	14.8605617017632	200	0
27	C3-Cz	91864	92015	151	28.4519854342632	17.8045952474093	131.367844927858	2.82833722886493	136.079312389374	4.46761979468248	178	13.4285222829967	221	0
27	C3-Cz	96365	96414	49	36.0840869857421	20.4018788957076	160.414920451711	3.32385581864178	160.414920451711	2.06593540682604	165	15.0214502649156	268	0
27	C3-Cz	96525	96632	107	21.6698822451731	20.981842520985	81.8141251049853	1.18083190280887	160.414920451711	6.30943972688018	157	8.37542553858644	156	0
27	C3-Cz	97003	97066	63	29.2532440507024	19.0106060015193	112.211437908917	2.6606882854994	160.414920451711	12.4282094182251	61	15.0791226437873	82	0
27	C3-Cz	97310	97361	51	24.523831161571	18.032134177796	78.7617006248473	2.22900991267834	160.414920451711	1.19002817836402	141	11.7934903933117	217	0
27	C3-Cz	100990	101043	53	27.6735080665581	13.7906328656093	102.182133195641	4.0267998091519	126.124487678977	5.30511312606035	172	13.8724715261824	171	0
27	C3-Cz	102137	102282	145	29.7607080654963	14.3018500108625	143.856683667101	4.44584111391759	143.856683667101	6.13390463428517	119	13.1948654523982	127	0
27	C3-Cz	102415	102460	45	20.7522994336761	14.4986748422135	72.0151823577688	2.7427333760848	143.856683667101	6.88191734299935	146	7.19573464407586	177	0
27	C3-Cz	106578	106656	78	27.0875083078699	15.8809606674888	110.783088475945	2.90927365893947	121.765799177594	7.00995461473881	149	10.1345755541011	148	0
27	C3-Cz	107696	107736	40	25.7516150064889	16.6767448497393	106.422798608099	2.38443986114592	121.765799177594	4.26582004281384	192	14.1918730744001	248	0
27	C3-Cz	117170	117226	56	33.6688027691729	16.9749757018994	144.534531065162	6.10736807176279	147.550942640754	7.62698828606979	190	18.812986889878	189	0
27	C3-Cz	117914	118299	385	28.988442743857	14.7477650464021	130.875474594661	4.40835608906783	147.550942640754	7.11067998717442	167	10.5465364164619	166	0
27	C3-Cz	142827	142872	45	20.909680974113	13.1100570982632	71.4097047868054	2.54381572135615	110.037826462971	7.22432759971332	189	12.6078309670389	188	0
27	C3-Cz	148188	148230	42	32.2297554756968	12.989933776714	119.183390967406	6.98042144562778	126.833042191675	1.80137397019265	123	18.4365439091569	220	0
27	C3-Cz	149177	149225	48	31.0195050569228	17.1995877498099	118.131589087894	3.65354812946117	146.259639496013	7.15630519676211	95	8.04226609412458	128	0
27	C3-Cz	150120	150176	56	28.5912591358423	15.1095500857726	96.3040504109626	3.89515103156054	146.259639496013	2.80571799482206	175	16.3459009149513	231	0
27	C3-Cz	151695	151768	73	35.0045934055114	11.3611684178386	141.828396352524	9.49301307944376	178.614091507433	7.27175509521013	94	12.2640342437994	115	0
27	C3-Cz	161971	162017	46	16.970157424428	9.06976741430869	62.5436380896865	3.50089787350676	70.0517487571584	2.85567565179148	190	9.07299178456802	227	0
27	C3-Cz	167832	167884	52	24.6262643062083	15.7854195035487	98.7034769830386	2.43379960776491	129.506973482715	3.93805004015021	148	10.2610924996854	211	0
27	C3-Cz	183288	183363	75	30.5785704423577	16.8360739887754	113.16181034426	3.29877507911186	150.136638668624	7.12543739978585	97	9.50458665010427	136	0
27	C3-Cz	187563	187606	43	17.1509818580723	11.4163793054834	52.0291412991092	2.25694614345082	108.40828553214	1.56082535895098	152	9.94734783529836	220	0
27	C3-Cz	192921	192980	59	34.4783409082525	12.7967181378518	128.834521816308	7.89487143436683	128.834521816308	1.39262122345085	142	9.40087550422404	300	0
27	C3-Cz	193751	193804	53	25.2749908211783	14.5794575978563	98.8736451816033	3.50292678340968	128.834521816308	9.00552660739145	142	9.8988425081136	185	0
27	C3-Cz	197714	197767	53	19.4379262427	19.0328936223808	66.8235224670292	1.24345666870445	154.053905618267	5.41986369015712	132	7.19194732767696	131	0
27	C3-Cz	198674	198881	207	33.7137590501131	20.4779921396051	158.153854195332	2.91865257754143	165.370898845135	4.69740086176825	128	14.7187515039363	210	0
27	C3-Cz	199020	199286	266	23.1972284627195	20.8135565127084	122.68906364112	1.59013274395294	165.370898845135	6.17603855764624	150	10.1351244197557	149	0
27	C3-Cz	199379	199433	54	27.6929799753104	20.1742422338677	116.438948718731	2.69532827105745	158.153854195332	3.07129366002612	127	14.6666701260379	211	0
27	C3-Cz	203532	203753	221	28.4015859417079	16.5693777591152	161.022272195956	3.15747115066569	161.022272195956	5.90878546471879	229	10.1468611829189	232	0
27	C3-Cz	204617	204659	42	33.8007137558557	15.5285269668206	132.81944103975	5.52027015978381	141.753071235334	3.0329154339275	159	17.8399509106947	211	0
27	C3-Cz	208429	208876	447	28.9116895628697	21.1419232437643	141.190986064673	2.47607386754762	151.794026733817	8.31784319647113	180	12.262682114156	179	0
27	C3-Cz	209183	209229	46	35.595843829321	26.6365400586903	118.462306647525	2.26663358214851	168.184908449157	5.14741257568926	160	17.4348706306684	159	0
27	C3-Cz	209483	209678	195	32.5942148466696	26.3590239246955	137.36825840619	1.72854108628351	168.184908449157	4.1704199370416	147	13.9919345606633	241	0
27	C3-Cz	209767	209956	189	25.6674224970961	26.4835184273884	105.222406139531	1.12143698997492	168.184908449157	6.97084788006611	83	8.67365707729356	82	0
27	C3-Cz	210127	210223	96	34.2147553062876	24.3318868663558	154.310056229624	2.31872655732128	168.184908449157	5.4469355268276	147	13.2072525172683	201	0
27	C3-Cz	213518	213632	114	32.7873071848954	20.7414106536522	140.585730877459	3.12933366256789	155.126292138368	4.72654060564556	328	14.619754893704	192	0
27	C3-Cz	214087	214189	102	28.6701498463145	24.9136308406257	122.881996315144	1.74350662937174	163.866237845564	9.20226855951797	103	8.01353039052725	102	0
27	C3-Cz	214361	214410	49	40.4319795969175	26.1992222556995	151.936971086086	2.82556352096662	163.866237845564	10.50469772224	184	19.3215153525825	183	0
27	C3-Cz	214572	214920	348	31.0023148080915	24.7841322868647	150.743658586885	1.77531522334344	163.866237845564	5.78039929304166	157	11.6754480742586	219	0
27	C3-Cz	218687	218760	73	22.7201133851297	17.8457038793104	86.0493176159929	2.05122125661179	139.670604415406	4.72922691735014	152	11.0441632757904	151	0
27	C3-Cz	219359	219729	370	24.7352311359683	16.5835372754561	112.884135890927	2.30231046420592	139.670604415406	5.79456658319759	121	10.1225448759184	210	0
27	C3-Cz	223469	223527	58	28.6443365567383	14.3780571183293	103.74719871645	4.27231437313129	112.47416280786	7.30994918852099	169	16.0037779437279	168	0
27	C3-Cz	223803	223886	83	23.2709798896781	15.1744680693125	96.4589480975848	2.55053700634105	112.47416280786	4.9475225766833	114	11.3102281118894	148	0
27	C3-Cz	234487	234556	69	25.8861649959558	13.3135496773143	102.546701458107	3.91607569336358	104.465054994394	3.54322911150482	140	14.4140136037758	148	0
27	C3-Cz	234902	234955	53	19.9602750708853	12.8868448502495	68.9200385347125	2.6957992560045	104.465054994394	6.34999846166501	149	10.3570665300497	174	0
27	C3-Cz	252869	252921	52	24.9429373167091	15.5991221708893	94.7134118859277	2.60625152637812	116.119415429891	3.44196946514633	146	13.092907261896	208	0
27	C3-Cz	253468	253514	46	20.8621297797396	15.3146119679943	73.8051688900663	1.94310572050682	116.119415429891	6.51745915358939	135	7.98757593635375	177	0
27	C3-Cz	269788	269934	146	21.8844597246939	12.7012652772338	99.9283319257039	3.1753081241326	100.033957149994	3.33413205897015	142	10.5758630936566	206	0
27	C3-Cz	270866	270919	53	23.2261088059531	11.3266061585465	84.1080746360484	4.4934168345227	96.1013952376514	6.10265723831808	177	10.705501251084	176	0
27	C3-Cz	280660	280707	47	18.9781441653489	11.6667225078011	66.4200467811716	2.64612128446174	93.6362096271928	1.80211284612482	143	9.77726712500037	213	0
27	C3-Cz	291214	291289	75	27.6517469722335	11.970082472912	114.837452362348	5.33643056627604	114.837452362348	6.07864448577567	145	5.39438922957222	144	0
27	C3-Cz	296448	296542	94	30.3997392265906	15.6598563210225	116.25920638769	3.76846225891944	129.470132956465	3.75591155532171	102	11.5976035204914	222	0
27	C3-Cz	311632	311688	56	22.6334872474164	16.9655984818541	88.872363121928	1.77977284730011	130.995626177695	2.69677649385907	162	10.7739836429902	203	0
27	C3-Cz	312733	312780	47	36.9239389856712	15.2084282346831	143.048090136886	5.94366252221181	145.136417428042	7.21204116206901	134	18.2136029438579	154	0
27	C3-Cz	312993	313035	42	17.8425585144959	15.065952894949	57.7268911980521	1.59947142199976	145.136417428042	4.78266991846255	157	9.45606609720396	188	0
27	C3-Cz	316957	317017	60	24.9314036255868	14.5905816729133	90.0943126429876	3.92058518505899	109.324176075913	7.18151344435587	168	7.47782540182661	167	0
27	C3-Cz	317272	317468	196	26.6505954117083	12.6350627401143	109.109835940725	4.89450038747093	109.324176075913	5.69365027139671	167	10.8970713432825	166	0
27	C3-Cz	320424	320465	41	34.7171390350308	14.7369766067218	126.753937757001	6.36409360326221	129.774941870116	3.0549703164977	148	16.0036317693825	252	0
27	C3-Cz	320802	320861	59	25.7736754063458	15.2459624559245	91.9091683763448	3.35433061737598	129.774941870116	6.91304605124245	154	11.2147250371844	155	0
27	C3-Cz	320969	321036	67	24.2434431791256	16.5219337460605	93.4073016535764	2.77712004466329	129.774941870116	5.91822883976262	184	11.2295170547981	183	0
27	C3-Cz	321905	322076	171	25.3787157992281	11.8479513680181	115.306280451632	5.16801419078181	115.306280451632	7.60633955082347	142	8.88870334422529	179	0
27	C3-Cz	341719	341803	84	19.9785794388141	11.4208140799969	80.5649451014607	3.25530992273355	98.58533998983	2.75932559180094	142	11.0611356897949	141	0
27	C3-Cz	342226	342270	44	21.6853154711733	11.5462859404281	81.2763709330527	3.86983331369103	98.58533998983	5.86190543771062	169	10.7560270061217	175	0
27	C3-Cz	363434	363482	48	23.7078904027586	12.970168895299	85.8245762562125	3.34113911673356	100.336414341232	2.96694727585292	134	11.8197410937779	197	0
27	C3-Cz	385042	385087	45	25.1787177899339	11.0543342991457	91.3643943761625	5.18802466385156	91.7471581725324	1.89626022939362	190	13.1181186383555	259	0
27	C3-Cz	414914	414966	52	24.5814366458463	20.3124300027181	82.9967184502214	1.82536286206743	175.431653277099	5.32045530347691	189	12.0289914650773	188	0
27	C3-Cz	415262	415322	60	24.534694957479	20.9787820725866	102.782076644725	1.65890595012173	175.431653277099	10.3203549992845	103	7.5402940846709	102	0
27	C3-Cz	415411	415502	91	33.0124911670778	20.2262127796784	129.870595068967	3.04820659810636	175.431653277099	4.01564972279773	99	9.49131721363027	124	0
27	C3-Cz	415827	415888	61	39.6193512706319	19.8939802265371	161.10652466384	4.52350253098295	175.431653277099	6.01246338736657	107	9.11457130399424	125	0
27	C3-Cz	431620	431664	44	23.6417649419546	14.5835266231993	84.0508584790047	2.67683609353686	124.769570827623	3.80756639518837	99	11.7198583588681	131	0
27	C3-Cz	432473	432527	54	18.7012245216358	16.3402028414917	64.6870678327068	1.46323882626467	125.829034707579	2.78069530693458	153	7.84612910931738	242	0
27	C3-Cz	432748	432800	52	31.9924044124708	14.0172453440558	115.387597454645	5.32665294500581	125.829034707579	3.29897742076785	164	17.2679462829083	163	0
27	C3-Cz	442260	442468	208	30.0717620396498	17.751553198875	128.576729213057	3.43496816865879	159.436120554585	6.80969957979271	351	11.4059169377954	196	0
27	C3-Cz	443061	443207	146	26.3117128467555	23.1926289787113	105.003884118304	1.89628459304403	162.725135481849	4.06475400994591	177	11.4974893791559	176	0
27	C3-Cz	443420	443899	479	29.1237179212454	16.7653731183125	156.045371765168	3.79082186942485	156.045371765168	5.90119031990766	168	9.99936008158223	209	0
27	C3-Cz	444033	444084	51	19.6217395268563	18.9716124811988	68.2721946212382	2.50599051240008	156.045371765168	2.95597036446159	175	9.98308838434361	179	0
27	C3-Cz	554092	554159	67	26.661376567641	12.1988114629386	108.67200442085	4.77672346256266	118.849785629637	3.38720707367115	181	10.0572386061831	222	0
28	T4-C4	261660	261727	67	4.64018392725523	2.12044646622885	16.3911427225313	4.78867943964529	18.5294997410251	0.657676158372662	89	0.744307104297512	88	1
28	T4-C4	515060	515131	71	5.51549046532254	2.32054219446735	18.8870520632684	5.64923104501696	18.8870520632684	0.675456975875141	88	0.952492084622846	111	1
29	C4-Cz	21647	21703	56	32.2954031240453	15.8605319258992	136.838285809777	4.23117022167205	162.850316085132	6.35743318456223	161	15.8583645897571	182	0
29	C4-Cz	22641	22688	47	21.3797585228168	18.2779310570218	79.9240292808905	1.45903074392373	162.850316085132	2.49600781305379	63	12.2068492839307	82	0
29	C4-Cz	27262	27343	81	27.9916330667901	19.6229603875325	107.34633002026	2.83272399139218	148.035725563096	5.2969958913126	119	10.4439937648574	118	0
29	C4-Cz	27433	27799	366	29.4561656897626	17.7346452793647	148.035725563096	2.9465738995245	148.035725563096	7.63777303697295	122	8.0723083389867	121	0
29	C4-Cz	28836	28901	65	39.3460743243823	16.4600517950417	147.275648919036	5.71400243389931	147.275648919036	8.16944412408133	89	12.1057932599762	117	0
29	C4-Cz	33304	33454	150	26.2165330380308	20.7528180078697	107.828298556356	1.77080750510107	140.766489819603	5.10771424249636	143	11.4250762817227	206	0
29	C4-Cz	33571	33629	58	27.0991794413888	20.9756469199225	100.797075096775	1.90959580890497	140.766489819603	6.2893509689503	335	11.7806838218049	195	0
29	C4-Cz	34061	34135	74	30.9334929532458	19.3072322423305	114.667198789873	2.98876343212284	140.766489819603	6.81076881608401	120	7.27494090587076	147	0
29	C4-Cz	34244	34292	48	28.936909692832	19.1336308148126	115.20183693865	2.79759410815872	140.766489819603	5.56685706940602	183	10.8843245414586	231	0
29	C4-Cz	38327	38383	56	22.4804567195992	18.0632734236516	82.5647950202323	1.79629565219713	168.41006712478	5.44072937999375	157	11.8352367138177	181	0
29	C4-Cz	38487	38542	55	28.113761806169	18.4432985067907	105.796430703879	2.67624385684391	168.41006712478	8.99831760384489	115	10.1315284104889	163	0
29	C4-Cz	38895	38963	68	34.3851395036589	19.995870182188	146.910282372636	3.33678477942137	168.41006712478	3.35417381043776	127	16.007924851619	207	0
29	C4-Cz	39380	39447	67	23.18447366857	20.9707003567789	81.4518864291417	1.41323061120847	168.41006712478	4.28356239557016	143	11.8825107291952	142	0
29	C4-Cz	39777	39948	171	24.8789893818074	17.9993263121128	111.198756430888	2.17646119539533	168.41006712478	10.7457287442745	95	7.84951459245455	94	0
29	C4-Cz	43838	43893	55	21.8774269640867	16.677629604723	75.3740760724469	1.77050007299962	161.400360798776	4.4885904988975	175	11.602625832025	174	0
29	C4-Cz	44629	44676	47	24.4095753487291	16.1642688312762	93.2365621100566	2.33636888043988	161.400360798776	7.6688891108309	134	9.01482830686987	166	0
29	C4-Cz	59787	59840	53	23.0173077134809	11.3011183709658	84.5221199063356	4.14826220611473	100.68959165183	2.09403594695025	165	10.9387830091068	244	0
29	C4-Cz	68496	68543	47	21.989110249369	20.0111096535782	81.1694312338644	1.35533484761941	183.303702254104	2.76503563336491	194	12.2517548629982	215	0
29	C4-Cz	68721	68935	214	27.6256821954759	19.0931132522394	124.088894220154	2.11043470153299	183.303702254104	7.96287354246162	184	11.2421261869136	183	0
29	C4-Cz	75272	75312	40	35.5483421322459	11.5857020428711	130.104429705341	9.41442916595953	134.287541172827	1.39379656101854	166	13.1227028636444	300	0
29	C4-Cz	85557	85601	44	20.1997723745388	12.2199607840787	75.7576135236536	2.73245693965198	116.457348931914	2.41402135472565	212	11.3634657206156	212	0
29	C4-Cz	90842	90937	95	32.2916565094287	15.1344821592652	138.444361389017	5.15604613364013	138.444361389017	3.42053897368799	119	14.9086109024499	201	0
29	C4-Cz	91865	91961	96	29.0840662250415	18.3824163076452	131.378594406665	2.74848790132362	138.444361389017	4.68307878804008	218	13.9643233403219	269	0
29	C4-Cz	96364	96413	49	35.6465634658988	20.5929077005516	159.11540787303	3.08218911099739	159.11540787303	2.32595319550063	167	14.525196338257	270	0
29	C4-Cz	96525	96632	107	21.6887183437217	21.129518168889	85.5935660242012	1.12893473332556	159.11540787303	6.4318733666246	156	8.2615142765357	155	0
29	C4-Cz	97163	97217	54	23.2873676450832	18.7733672799391	95.0835923680652	1.736442151323	159.11540787303	8.01974631448465	154	12.738179169678	189	0
29	C4-Cz	97310	97360	50	24.7343803227174	18.1126200264616	80.9016589166244	2.13541286759881	159.11540787303	1.57007328031268	139	11.6572550397674	217	0
29	C4-Cz	100990	101043	53	27.2468386147264	13.8294306335628	101.179146469188	3.88171493174276	123.735590103005	5.2557908449731	172	13.5896101177405	171	0
29	C4-Cz	102137	102283	146	29.8494599921157	14.3667779033079	144.73160426728	4.42577151297487	144.73160426728	5.97860021894582	120	9.22940436159411	127	0
29	C4-Cz	102415	102458	43	20.7962914843605	14.6284605092702	70.1871618396086	2.69822928462241	144.73160426728	6.35692846131225	148	6.71114638964588	175	0
29	C4-Cz	106578	106656	78	27.1680725793242	16.0339371322961	109.879667051614	2.93764967505602	123.816906805604	7.06055616487297	148	10.1339869380821	147	0
29	C4-Cz	107542	107591	49	22.0107754950932	17.4008575727186	79.9618072342282	1.74684916390489	123.816906805604	5.50647163531829	163	12.0100603832558	162	0
29	C4-Cz	107696	107736	40	25.1177388090193	16.818737277724	103.049511690234	2.27187425327809	123.816906805604	4.07565470648666	192	13.9610430337554	248	0
29	C4-Cz	117149	117227	78	31.1085296419117	16.9247721325439	142.590621883911	5.21852542400391	145.901560041677	6.56009012328568	185	16.3247109091753	184	0
29	C4-Cz	117914	118300	386	28.895951707201	14.9042548134179	131.584504212591	4.36077354085569	145.901560041677	6.94658038990487	169	10.5934458101485	168	0
29	C4-Cz	148188	148231	43	32.8228111533676	13.1125673250887	124.190491907062	6.26579361723266	128.971469107715	0.986527513601554	124	18.5898858910751	219	0
29	C4-Cz	149883	149932	49	28.1313502020147	16.0816337139967	114.684487089357	3.26107812359693	144.651995357484	4.46389748946112	188	13.8168212763079	187	0
29	C4-Cz	150120	150176	56	28.323285227057	15.2328433335521	98.3020728210574	3.68496646708597	144.651995357484	3.04604024458499	178	16.4229091683112	231	0
29	C4-Cz	151694	151768	74	35.9727213522502	11.3647045177881	144.058378268612	10.0191364240465	179.355020396623	8.07325669518662	95	12.3650010103546	114	0
29	C4-Cz	161971	162036	65	18.7859684745111	8.94074789250981	69.7913232459412	4.41488586347281	72.2576520431096	2.4132443075405	159	8.30613777086443	235	0
29	C4-Cz	167958	168010	52	26.4606532113677	15.5051365470065	101.064455158453	2.91239268525101	130.027095476598	7.42402468454856	141	10.02762831117	166	0
29	C4-Cz	183288	183363	75	30.2204210361326	16.7929480857991	111.841409046472	3.23852408031374	149.467531611478	7.22533296948789	97	9.34878950839555	136	0
29	C4-Cz	192922	192980	58	34.1164110572703	12.8671653166876	128.386743917466	7.63383129135475	128.386743917466	1.96210749850811	142	9.29322766240196	300	0
29	C4-Cz	193752	193805	53	25.2474636316589	14.6244601825162	101.80246581696	3.44566025413516	128.386743917466	9.20432718474062	143	10.0889136001422	186	0
29	C4-Cz	197714	197768	54	19.0321321936254	19.1658399880789	65.9812309784926	1.19160412167576	154.384967891587	5.55027587840761	132	7.2645091320929	131	0
29	C4-Cz	198659	198881	222	33.6583893804714	20.4464849425077	160.629121830143	2.9325277599801	164.933774864528	4.39914193895528	118	14.5270174054047	213	0
29	C4-Cz	199020	199286	266	23.3660393732943	20.8772436075018	116.699290503504	1.63334710095759	164.933774864528	6.26743270350524	150	10.1517345162647	149	0
29	C4-Cz	199379	199434	55	27.9711629864634	20.1966767870552	121.713724063859	2.83036355961181	160.629121830143	3.4896684239598	126	14.6264903462187	210	0
29	C4-Cz	203532	203753	221	28.3069831561003	16.5888828552491	161.577302696243	3.1216342863465	161.577302696243	6.07650767786091	155	10.1748848611984	205	0
29	C4-Cz	204617	204660	43	33.1322490957261	15.4755325395788	131.599650020666	5.31457217847094	140.947705689474	3.01902617565826	162	17.378460978179	211	0
29	C4-Cz	208427	208877	450	28.8590733781083	21.1919844210216	139.127837431761	2.47855766049947	150.109055878138	8.25045582873953	183	12.1899497228149	182	0
29	C4-Cz	209183	209229	46	37.5283274360179	26.7190764988984	126.328442260948	2.47694048445044	171.937503852792	5.11254602287171	159	18.4053059021639	158	0
29	C4-Cz	209483	209677	194	32.5154463015116	26.6355977623116	137.554599723933	1.67235348192321	171.937503852792	4.00448052985273	147	13.9540319118295	242	0
29	C4-Cz	209767	209956	189	25.5145413901989	26.6915955847362	106.596550741758	1.08419683710313	171.937503852792	7.21931540896586	83	8.66835370170813	82	0
29	C4-Cz	210127	210225	98	34.3479027782161	24.5358112616336	153.125130407845	2.2895690413429	171.937503852792	5.41630625761555	146	13.0474858030484	203	0
29	C4-Cz	213518	213632	114	33.0488270977011	20.7693292938421	139.166646977195	3.17905654547875	151.875806169675	4.75677180722691	328	14.5126703228777	192	0
29	C4-Cz	214087	214189	102	28.8535596191272	24.865161467362	125.333676329612	1.80048055459495	157.239641492917	9.17542240901636	103	8.2832876988758	102	0
29	C4-Cz	214361	214411	50	40.0539433233899	26.1445377472054	151.774799706719	2.82693793897928	157.239641492917	9.96466083361483	184	18.9998964513366	183	0
29	C4-Cz	214572	214920	348	31.3257311448939	24.6800575268888	150.574990679598	1.83137651840925	157.239641492917	5.42105160941652	157	11.7257561029373	218	0
29	C4-Cz	218687	218754	67	23.105164383847	17.8094270411364	85.3881492089728	2.13240428784604	138.76617182838	4.13737268337403	152	11.4978833040698	151	0
29	C4-Cz	219358	219784	426	24.0896861671005	16.2266362728414	115.363304163759	2.2866643765588	138.76617182838	5.39051609341795	122	9.73235171349187	203	0
29	C4-Cz	223469	223527	58	28.9041282813175	14.4969606568654	105.152932346284	4.29751879234439	112.437241026793	7.68214716605332	169	16.0318962566119	168	0
29	C4-Cz	223802	223885	83	23.8668034912141	15.2578956181991	99.2681869444735	2.6557775203058	112.437241026793	5.10158295947815	113	11.2387554423616	148	0
29	C4-Cz	234498	234557	59	28.0177844489023	13.2929974606498	103.070741803699	4.59158944590819	105.631703791785	3.8717299284573	137	15.7352697980827	148	0
29	C4-Cz	234894	234954	60	18.9513932405614	12.8847580371027	64.3663912263046	2.44534100106054	105.631703791785	5.70024019425045	147	6.91487679161709	171	0
29	C4-Cz	252869	252922	53	25.0696188850927	15.6660517548619	96.3731244268421	2.56080405941047	120.523003862236	2.45756906361759	147	13.2026403347253	207	0
29	C4-Cz	269789	269918	129	23.127777433346	12.8470759563247	102.30478991493	3.45910440916619	102.30478991493	3.4037266664608	140	11.613986808713	209	0
29	C4-Cz	270867	270919	52	23.4263568871021	11.4249837484716	84.2439881455816	4.4841442486988	100.606487877381	6.00583497143638	178	10.7621796977815	177	0
29	C4-Cz	280661	280707	46	19.5714730504897	11.7333533041228	64.1856923560513	2.7822921625186	95.6547488665209	1.47328178077223	144	10.5063291446854	213	0
29	C4-Cz	291213	291263	50	28.714349341783	12.2214979359555	109.686830121168	5.52012715825245	109.686830121168	6.80472265149621	145	12.8116189090927	144	0
29	C4-Cz	296449	296635	186	29.0124834752579	14.7987986597992	123.581396331112	4.18862760545118	126.412932564507	3.7119117022559	163	10.7927786037208	219	0
29	C4-Cz	296929	296994	65	27.3480898108607	16.378706324516	98.4272645916026	3.57662370968896	126.412932564507	5.48128267775475	134	13.2039424442099	140	0
29	C4-Cz	311632	311688	56	22.063554824362	17.1658605005922	90.3349132281766	1.65203717031527	130.084901690986	2.81328984899666	165	10.2858468683586	203	0
29	C4-Cz	312733	312784	51	36.113841996637	15.3919643470321	144.145845868352	5.50502492647041	146.30266502507	7.26844189942046	134	17.9813084885559	154	0
29	C4-Cz	316957	317018	61	25.3253956622569	14.6890018544637	92.1733656530416	4.02782217465048	112.654302067365	7.33414789424394	135	7.72817339430208	165	0
29	C4-Cz	317272	317469	197	27.0231535972433	12.6678749051544	112.471217785836	5.03308151353838	112.654302067365	5.73571966695972	167	10.7447088902998	166	0
29	C4-Cz	320424	320465	41	34.4609549877592	14.7183929995117	123.449711619026	6.34259383214895	127.856962295557	3.37907192832184	151	15.9328187669849	252	0
29	C4-Cz	320790	320861	71	24.9869033397948	15.1986861259173	93.4045779212259	3.17155354976912	127.856962295557	6.6470827327395	152	10.7365745558928	153	0
29	C4-Cz	320969	321035	66	24.3924502387856	16.4800304686632	92.3482602940392	2.80333397382155	127.856962295557	5.97583851483382	184	11.5526883369182	183	0
29	C4-Cz	321906	322076	170	24.9248432225911	11.8843241859702	108.315268625548	4.94980665379296	108.315268625548	7.43839813708604	141	8.9385532629252	178	0
29	C4-Cz	330706	330747	41	26.782883274025	9.498560956087	102.122371401649	7.95058397291468	118.481817445747	2.48893982060906	251	12.0990058337596	255	0
29	C4-Cz	341719	341804	85	19.6069086907324	11.4336459719692	80.5649765097819	2.94068679398261	97.5255696476452	3.09131922339038	143	10.8372388766157	142	0
29	C4-Cz	363434	363484	50	23.6464931266383	13.1021458267522	84.1423868121751	3.25723150446993	98.7654859310655	3.48318245737246	133	11.902368526564	197	0
29	C4-Cz	385041	385087	46	25.0443286425507	10.8572157763241	92.8598193595168	5.32086022073297	92.8598193595168	2.39813484830283	188	13.2684970017888	259	0
29	C4-Cz	414914	414966	52	25.5078957374662	20.4097560942096	85.7633207357432	1.79979016537801	173.502926493406	4.95498023167986	190	12.7740673278875	189	0
29	C4-Cz	415262	415322	60	25.4330788143465	21.0747615617742	104.383193787276	1.64222193847698	173.502926493406	10.2806625135212	104	7.73974257378702	103	0
29	C4-Cz	415411	415502	91	33.2177407125706	20.3255127984726	132.245114758382	2.85040796010233	173.502926493406	4.26562832729979	98	9.55891371152696	124	0
29	C4-Cz	415663	415748	85	25.407147202673	20.7273293837032	107.690297308848	1.69360761974505	173.502926493406	4.00299262701452	155	10.6575888321609	154	0
29	C4-Cz	431619	431663	44	22.9328653506222	14.6950867868393	81.5050165408822	2.49061617865061	123.428363721644	3.73749911040391	96	11.3161416571225	131	0
29	C4-Cz	432473	432527	54	19.6268224107039	16.4325736108639	66.2488177866325	1.58637679503053	126.727813641498	2.83137120954088	152	8.19573534171232	241	0
29	C4-Cz	432748	432802	54	31.6299518935643	14.1460245011604	114.605992390495	5.1338035374889	126.727813641498	3.70996896653676	165	16.8923829690297	164	0
29	C4-Cz	442260	442468	208	30.12037153518	17.7505267210774	128.233259127943	3.43744756664911	156.952891702182	6.85294970759332	352	11.4764873180431	197	0
29	C4-Cz	442878	442923	45	18.0016336379064	23.6304450422507	56.1088848252671	0.874227182124531	157.268922640812	1.22269792976748	153	9.93465129462975	219	0
29	C4-Cz	443061	443207	146	26.1332555338085	23.1426862124251	104.525109050249	1.82963792605113	157.268922640812	4.04822020825096	176	11.4512246134061	175	0
29	C4-Cz	443419	444084	665	26.3919250744037	15.8620074459899	151.908527575864	3.60111857535078	151.908527575864	5.88980606115161	130	9.00466681525783	201	0
29	C4-Cz	554093	554139	46	23.3047141811691	12.6289316120938	85.467570657931	3.40529184945053	113.503254420161	3.32707245811776	140	11.0446513517015	214	0
30	T5-P3	151101	151147	46	13.0255374459595	7.41953618622088	41.0498911821037	3.08203657958039	50.4070602423438	1.9283982185967	168	6.07613186712964	199	0
30	T5-P3	365111	365164	53	12.7244553390042	5.95233550666951	42.1148496528843	4.56986739845145	42.1148496528843	2.24554706810182	164	6.82045857542608	163	0
31	P3-Pz	270288	270328	40	11.8332284562284	5.87657397407288	39.6885788629915	4.05469399292069	42.9912655288528	1.0377168754598	142	3.7792441541984	198	0
31	P3-Pz	365110	365164	54	12.608581233131	5.90722806842743	41.9645391468316	4.55580329591089	43.090086066094	2.29541509400346	166	6.66493379428406	165	0
32	T6-P4	3303	3375	72	3.81586793032386	1.84107398156984	12.6280547199974	4.29580133995234	12.8397959292022	0.576234664105717	83	2.10959161751464	82	1
32	T6-P4	14958	15048	90	6.11520751385431	2.28867737719593	23.0518850324087	7.1392607546286	23.0518850324087	0.821852859684389	83	0.528104478532013	82	1
32	T6-P4	52968	53056	88	3.90320918799583	1.91097922130101	12.9767705756688	4.17187920499792	14.7217620230651	0.320764855289835	110	0.551992902034511	109	1
32	T6-P4	65070	65167	97	5.98715302890151	2.25164538089699	20.9170150218237	7.07034703946573	26.6679069940867	1.10450869180545	83	0.661989475769072	82	1
32	T6-P4	80949	81032	83	5.32282962092679	1.98167931627116	22.8536919669154	7.21470166163671	22.8536919669154	0.684810561062095	88	0.695432364275971	87	1
32	T6-P4	82481	82575	94	5.6050797903014	1.97673353932107	21.898847192308	8.04020897185784	21.898847192308	0.64931731911372	83	0.499654941407065	82	1
32	T6-P4	117325	117407	82	4.14794075118374	2.19141639360825	16.1201446372131	3.58273986610274	16.738608817886	0.5600150523916	108	0.500692261919658	107	0
32	T6-P4	127104	127200	96	4.68919620294248	2.05348737571929	16.7869591722576	5.21450075583609	19.4921046790367	0.555060246103174	83	0.481246557365503	82	1
32	T6-P4	136718	136821	103	4.70365867068334	1.9246205614625	17.2422046923073	5.97284652217541	17.2422046923073	0.25974415526127	NaN	3.60892360954569	300	1
32	T6-P4	150252	150339	87	5.59934085851455	2.47723999046207	21.2736835345251	5.10902052226303	23.320479811531	0.55021166090023	89	3.84825952801519	88	1
32	T6-P4	179993	180072	79	4.53971416579621	2.26610256368702	15.898939305184	6.34424281063659	24.3889789017909	0.344694023757405	209	0.501841584842433	300	1
32	T6-P4	180195	180302	107	6.17968565734857	2.15290827676512	24.3889789017909	9.62065188252567	24.3889789017909	0.863145876566886	83	0.496388765430278	82	1
32	T6-P4	185325	185460	135	4.77333097809867	1.61617543532682	17.127370909889	8.72300446709291	17.127370909889	0.459871551569845	98	0.464504154399405	106	1
32	T6-P4	209299	209509	210	4.81714523346903	1.84631852727369	19.7990945053711	6.80716417279847	19.7990945053711	0.74480090225112	83	0.71271167183172	82	1
32	T6-P4	235608	235679	71	4.78192463977562	2.10961856072753	17.4224372525607	5.13804116772302	17.4224372525607	0.29760609961183	NaN	7.43664337208737	300	1
32	T6-P4	255399	255485	86	4.02005915281158	1.97346992538234	14.4652577064113	4.14957732954272	15.0220337578005	0.34987855732623	98	0.366900614454989	103	1
32	T6-P4	261271	261353	82	4.43608663559538	2.6265413738277	15.1157322149646	2.85253870464825	19.9560224784653	0.257377296601017	115	0.283310420702764	115	0
32	T6-P4	266349	266568	219	5.812406886603	2.81294372441113	23.9242817698686	4.32243919424278	23.9242817698686	0.795352824362221	83	0.575782573720157	82	1
32	T6-P4	266749	266811	62	3.2992603852394	3.35125217414224	11.1425925867194	1.28918379361742	45.8443323845195	0.822737043031161	83	1.91753554389675	82	0
32	T6-P4	281277	281358	81	4.74142078677125	2.12849544081502	20.5283188717608	4.96216898765351	20.5283188717608	0.813675638364225	83	0.728382196951314	82	1
32	T6-P4	292853	293013	160	6.29210396190895	1.79039320535336	27.3306048611552	12.3507956835169	27.3306048611552	0.934277230457472	83	4.0984497634848	82	1
32	T6-P4	316384	316456	72	5.77075802988144	2.28783786629056	21.0664236489411	6.36231608709988	21.0664236489411	0.822060168037183	87	0.927780871687254	94	1
32	T6-P4	342178	342270	92	6.2017564244046	2.36785358045505	25.3680073072625	6.85993061541283	25.3680073072625	1.03362296045163	83	3.72960460218773	82	1
32	T6-P4	344257	344408	151	5.04100216998098	2.06965410031405	18.1058613752814	5.93250663118776	18.1058613752814	0.445192708217311	110	0.508684378498514	109	1
32	T6-P4	351421	351507	86	4.87357402216963	1.99433037855213	16.818660762166	5.97174045534534	16.818660762166	0.606702194870142	97	0.442930100946032	96	1
32	T6-P4	369621	369714	93	4.40938117812071	1.97394060628484	17.2092608181773	4.98984580891013	17.7568073531205	0.641891101482439	91	0.417528490686026	90	1
32	T6-P4	378579	378725	146	11.1362976765843	1.55277981998606	81.6979944240587	51.435374454087	81.6979944240587	0.990659411879059	NaN	7.54777761773479	300	0
32	T6-P4	388752	388821	69	4.99910995307835	1.9886074544146	17.4004891716259	6.31956596986664	17.7735979192357	0.937744827383423	83	2.83357520985489	82	1
32	T6-P4	400201	400281	80	3.94218918939018	1.84719877794438	14.35399145312	4.55457292488006	14.9892038369025	0.329825142785219	103	0.565707580284115	109	1
32	T6-P4	429127	429207	80	5.73842636805007	1.94557451836691	21.6276878685068	8.69941176694379	21.6276878685068	0.996291185944703	83	0.656995937045891	82	1
32	T6-P4	456822	457044	222	5.30434220070583	1.7937175157031	29.9637186930103	8.74490246574584	29.9637186930103	0.32446202869985	NaN	5.55031567659386	300	1
32	T6-P4	489785	489855	70	4.50819099667637	1.9934152814492	15.4686072149376	5.11456907345146	17.8593597199415	0.553887433485915	83	0.979038641345502	82	1
32	T6-P4	569076	569194	118	7.12904505223877	2.05438085311502	28.8458384450494	12.0420603941012	28.8458384450494	0.661547428122303	108	0.662408102486916	107	1
32	T6-P4	585891	585951	60	4.0426040578667	1.90893396520566	15.3846935074022	4.48477443266384	15.3846935074022	0.844161031987296	83	0.669867558422829	82	1
32	T6-P4	598628	598680	52	8.44881222238043	1.4889307327405	39.7096729212252	32.198995794885	39.7096729212252	2.44845704215118	87	3.8386573860159	86	0
33	P4-Pz	64793	64846	53	3.00543271106598	1.49934412566254	9.43616657619857	4.01801332791114	11.5074213074075	0.375473649321053	112	0.63300716414601	111	1
33	P4-Pz	411006	411066	60	8.91608332330423	1.67794464936964	42.686512778087	28.2353370069447	42.686512778087	2.25357884640754	83	1.58815744604081	82	0
34	Pz-O1	389020	389095	75	3.92878336325828	1.57530855116613	13.0511426331046	6.21992149420381	13.0511426331046	0.428917354353196	83	2.54817067592806	82	1
35	Pz-O2	209271	209340	69	3.54347778564485	1.4364405912504	13.3469563208778	6.08532938995307	13.3469563208778	0.544094772580638	84	0.733216240617364	83	1
35	Pz-O2	457169	457241	72	3.66276750645855	1.52311743324375	13.5627551656846	5.78298315905496	13.5627551656846	0.340762231122001	109	0.583924145627601	124	1
36	O1-O2	14963	15017	54	3.28758032885798	1.61030477507489	9.99611284761257	4.16808517181237	12.7605746751739	0.546663096152902	83	0.600438629215312	82	1
36	O1-O2	491455	491521	66	3.0554057272818	1.4933072656014	10.8542901341266	4.18638745632882	11.0099718334989	0.812371850314301	83	0.801856673361336	82	1
36	O1-O2	569073	569172	99	4.03009256928266	1.5739940839033	14.8135130116195	6.55577216918445	14.8567122155253	0.432680035833758	116	0.43991833637172	115	1
37	F7-C3	191466	191533	67	3.69309973474625	1.8269342594941	12.9637637932437	4.08635631270409	12.9637637932437	0.51255949716579	83	0.646098995960721	82	1
40	C4-Fz	97011	97051	40	2.94474927929646	1.84325300755817	8.98916067764385	2.55227076536722	12.7985404877417	0.381098939084695	189	1.52766364263338	188	0
40	C4-Fz	389199	389247	48	3.22734780899239	1.78887439224861	10.1658220790189	3.25485651905766	11.6170856919482	0.703099007687513	163	1.47256677375419	162	0
40	C4-Fz	599953	600002	49	13.4680547034507	1.74720297272296	62.2354937729404	59.4186832698274	62.2354937729404	1.09205926821288	106	1.32418700091478	105	0
41	T5-C3	285893	285966	73	4.91098494875988	1.79755485363086	19.9447272347515	7.46402185025595	19.9447272347515	0.904391014221339	121	2.51858322265228	120	1
43	T6-C4	3323	3398	75	4.48853090758724	2.12793311428745	16.2057937744712	4.44930824184266	16.2057937744712	0.477561252502894	110	2.84341540600032	109	1
43	T6-C4	14957	15048	91	6.99954121027859	2.5308156628444	28.8787631886783	7.64923709493431	28.8787631886783	1.083967872244	83	0.608954135991001	82	1
43	T6-C4	18078	18158	80	4.38426214536228	2.00845583750309	15.3131647511597	4.76506088242174	16.2791963628191	0.439175718720267	89	0.591616919697972	88	1
43	T6-C4	22587	22661	74	4.1595310132172	2.01094056719511	14.2016015395467	4.2784874535303	14.2016015395467	0.903543307194098	83	2.22182469383909	82	1
43	T6-C4	51177	51262	85	4.95913439418677	2.05534761061578	18.775201364178	5.82158430443837	18.775201364178	0.72833495017086	83	0.63883791066313	82	1
43	T6-C4	53141	53259	118	4.92678716598693	2.12077548201248	18.8342819624632	5.39682350074401	18.8342819624632	0.501548347350954	83	0.510954897633712	82	1
43	T6-C4	64823	64892	69	6.79202325915161	2.43523977381058	27.6091611706399	9.75380994791346	27.6091611706399	1.32196997540973	90	6.27099607181348	89	1
43	T6-C4	65082	65164	82	5.80210814436089	2.43286913361752	18.8983073116891	7.54747658258569	27.6091611706399	0.862071337388004	83	0.660461922742381	82	1
43	T6-C4	80956	81028	72	5.80851788357585	2.27181618421911	23.623351262714	6.53708727948955	23.623351262714	0.433112090413678	NaN	6.33124673117337	300	1
43	T6-C4	107363	107434	71	5.08656593371964	1.76237300425961	16.3503837714016	8.3301667146834	16.3503837714016	0.65243914559142	83	0.388110109745944	82	1
43	T6-C4	110763	110867	104	5.26322729469685	2.11828572880082	19.8111185050937	6.17355285315036	19.8111185050937	0.478481839801849	91	0.666087751129903	104	1
43	T6-C4	121868	121943	75	5.10282475995864	2.67956778413335	18.843760047284	3.70247884591722	23.268124305563	0.624264623910666	83	0.520043797813275	82	0
43	T6-C4	122908	122994	86	4.48684166004117	2.56990923218461	16.9989160197161	3.2418513403996	23.268124305563	0.505065511678022	115	2.58393687179747	114	0
43	T6-C4	150133	150431	298	6.57906792935813	2.30279305061215	28.5950970817558	8.16241967997961	28.5950970817558	0.647621650872717	100	0.733597065252497	103	1
43	T6-C4	180194	180294	100	6.33388194879509	2.24249281373628	23.9295952008755	7.97770199743315	24.3112397613178	0.911918348755142	83	0.695082012183105	82	1
43	T6-C4	185369	185454	85	4.96486556853185	1.94381611121997	17.6190779623947	6.52386000111493	17.6190779623947	0.416690544398291	95	0.74003054433663	107	1
43	T6-C4	209300	209393	93	5.42996146624707	2.35951755125516	20.4680895605763	5.29598895724525	20.8909593005459	0.746972178431992	83	0.838669026739901	82	1
43	T6-C4	233956	234030	74	6.10336099313298	2.64154404999587	22.1298278499914	5.33853876826633	28.021012862337	0.674930226285526	91	3.78752765724809	90	1
43	T6-C4	261713	261795	82	5.49879538365047	2.74797449813042	21.067545406861	4.00414432444369	21.067545406861	0.379841750608773	NaN	6.52108803527876	300	1
43	T6-C4	266345	266564	219	5.37044332218831	2.8920729386092	22.1491338198324	4.7361633279797	22.1491338198324	0.862153463286051	83	0.777918161700438	82	1
43	T6-C4	267516	267587	71	8.85387904208467	2.46238448906032	46.8999327011856	14.8759290657237	46.8999327011856	1.08210534864271	NaN	7.8835531809299	300	0
43	T6-C4	282547	282631	84	4.7105008145828	1.95462928367506	17.1265010858826	5.80771591370222	17.1265010858826	0.520111392003431	110	0.537583914989825	109	1
43	T6-C4	292863	292971	108	5.75781069335086	2.17668608495655	22.9597882989632	6.99718186727579	22.9597882989632	0.847498688251523	83	4.05726110519565	82	1
43	T6-C4	316156	316235	79	5.31406042690763	2.56058778499363	20.7141506852171	4.30698776687324	23.7011287629498	0.512509330318935	106	3.42186792263619	105	1
43	T6-C4	344312	344378	66	5.65562406364024	2.29854742371712	19.2373842650318	6.05416328761736	19.2373842650318	0.464349046382028	96	0.758607692574719	114	1
43	T6-C4	351433	351510	77	5.13102901103161	2.13365327829252	20.4978426325521	5.78310723832509	20.4978426325521	0.401412556836109	97	0.85731570559031	107	1
43	T6-C4	378590	378731	141	11.2575926398149	1.97763139220824	77.3397146959256	32.4041298944654	77.3397146959256	0.874016734676155	NaN	7.35032789141355	300	0
43	T6-C4	388738	388820	82	5.02087824485564	2.09854992885634	17.2736491693745	5.72427865774312	17.5182221208832	0.513628647043428	104	0.620441339497435	113	1
43	T6-C4	400419	400484	65	5.28594455823528	2.13735445214747	18.1755109305889	6.11634686936135	19.1415849592936	0.502548281904919	95	0.695886215534028	97	1
43	T6-C4	456822	457039	217	5.54259832055905	1.94508631638266	26.4602012862978	8.11986959325881	26.4602012862978	0.877983112481809	84	0.484661353763427	83	1
43	T6-C4	489796	489856	60	5.19671859000938	2.35598740498939	16.176816995654	4.86533188557079	18.2638485299417	0.525144569062319	83	0.84243578389091	82	1
43	T6-C4	491548	491633	85	4.7539086119996	2.35417422754617	15.6877603459007	4.07778623509638	17.3262326286983	0.498119353526416	113	2.83339441561742	112	1
43	T6-C4	517924	517998	74	4.65614230443375	2.16355720882317	16.1767181902782	4.63143660187444	16.1767181902782	0.411555248353959	87	0.595544018928464	86	1
43	T6-C4	539596	539671	75	5.70924486189456	2.110539413311	22.8938669020021	7.31762931367021	22.8938669020021	1.10170194629011	84	0.568419755595464	83	1
43	T6-C4	569062	569196	134	6.90689812755779	2.04614992575523	30.4951810927159	11.3943930535157	30.4951810927159	0.729756065336162	100	0.752343900324883	109	1
43	T6-C4	585892	585957	65	4.68112267913691	2.14569432510983	15.6747840515282	4.75953298172313	18.3130335320239	0.810206889983894	83	0.488459462560285	82	1
45	T3-P3	151101	151148	47	12.9486383278531	7.40734911313299	40.3300297932181	3.05578344576659	49.5352085366994	1.37332249755004	164	6.51762188381432	201	0
46	P3-Cz	23101	23149	48	21.7626917841081	17.5386644493033	70.374015162274	1.53968608308487	170.379239584121	1.87448262679292	128	11.7741343039233	194	0
46	P3-Cz	27435	27583	148	30.0407523672449	20.0864455779897	118.472487826101	2.43312905726994	140.942035984649	7.00116397664755	119	7.86858983550486	142	0
46	P3-Cz	27712	27798	86	33.4594441470098	21.0889148478722	118.604354501148	2.74463980441371	140.942035984649	6.89867337265883	138	12.9733866280883	137	0
46	P3-Cz	33303	33359	56	30.6422899973936	21.7078544055217	111.426795491516	2.04693659174506	157.024398850703	4.12345742098495	157	12.5695483770925	205	0
46	P3-Cz	33572	33629	57	29.840783152796	21.6389399540143	114.08715892843	1.95951510134674	157.024398850703	6.05143600414925	330	14.1481565003434	193	0
46	P3-Cz	38913	38963	50	39.4503500597247	21.5237517741218	157.574939603106	3.52567656487956	185.97077778902	3.7107976338306	133	19.4509417888861	208	0
46	P3-Cz	39777	39947	170	26.3992211729281	19.409281260532	115.544333588716	2.01507233230504	185.97077778902	11.3824753791577	95	7.75992393192066	94	0
46	P3-Cz	68881	68935	54	35.3535868373437	21.0196050409892	119.262112546211	2.82890173267538	185.079149023895	5.00908462265739	177	18.2651984334749	218	0
46	P3-Cz	75273	75313	40	33.2184656764353	12.8517650950457	122.42011769716	6.68087860084995	128.542397709056	1.4762468607661	167	14.7324376713704	300	0
46	P3-Cz	90843	90933	90	33.2132046827387	15.46973625769	145.946822215564	5.10436983405856	145.946822215564	3.42641020927018	118	14.8149709340987	198	0
46	P3-Cz	91863	92014	151	29.2714044243592	18.8866502124932	134.826201938115	2.63886904896133	145.946822215564	4.75984867404832	178	13.995813701005	229	0
46	P3-Cz	96367	96412	45	39.4525488500708	21.5336723758955	174.089076407635	3.35995172336591	174.089076407635	2.43095919905163	164	15.1744079238651	222	0
46	P3-Cz	96520	96618	98	21.7321763691265	22.381546045135	76.0942911383681	0.992025647048029	174.089076407635	2.81831015944077	196	9.0676620819899	201	0
46	P3-Cz	100991	101042	51	29.8018377474501	15.0774664378522	104.484987127175	3.90687351359491	121.608691676061	4.92485104754919	168	15.0577226977779	167	0
46	P3-Cz	102213	102284	71	29.0303296148747	16.5419400725136	105.007760494484	3.07986051148559	124.680766830241	7.01034600581657	152	11.9614569359776	171	0
46	P3-Cz	106610	106656	46	25.9571828036414	16.7783204183246	98.120329259844	2.39341574353903	124.342699650168	5.45862821300268	171	11.0728601878704	188	0
46	P3-Cz	117172	117224	52	34.0572673793576	17.645315176935	146.948434227161	4.10318417014067	154.835099257068	7.85258996025306	190	18.8908194567061	189	0
46	P3-Cz	117914	117969	55	36.1494765714059	19.182053382248	135.93611169646	3.98300750350614	154.835099257068	5.38842409840976	179	18.6845894271091	178	0
46	P3-Cz	118240	118298	58	30.5303375180621	17.039045678954	116.587408917577	3.57060713447419	149.982685991425	3.70096347362027	157	14.545170254801	156	0
46	P3-Cz	148188	148229	41	34.2813871240028	13.6822977478365	129.098313506175	6.27767312705444	129.098313506175	1.24112231126612	149	19.2610908488051	219	0
46	P3-Cz	150122	150175	53	32.0953479315078	16.1395009020758	110.672297355311	3.95461286756959	155.182537808961	2.57512761856883	221	18.769121279482	233	0
46	P3-Cz	183289	183344	55	35.3998801534095	18.0404787318535	130.836947875334	3.8504143513062	167.855621389133	8.33295751969446	104	9.19868750390576	137	0
46	P3-Cz	193751	193791	40	28.9280070064084	16.052460150987	103.033075697714	3.2475349001928	136.796997395263	9.88657926796742	149	10.3885556592631	189	0
46	P3-Cz	198659	198879	220	35.6390588088284	21.7180669267768	159.884312142965	2.7464191669063	169.643146663379	4.21993693290252	116	15.2339157646426	210	0
46	P3-Cz	199021	199083	62	27.4701025657163	23.3775885653343	111.365225193589	1.65260248767407	169.643146663379	8.8240636351209	103	5.5304681085876	102	0
46	P3-Cz	203710	203753	43	33.4963157280547	19.4986362518178	110.049895355065	2.95111142723459	158.835911439852	10.4230069897548	139	11.6225876796267	175	0
46	P3-Cz	208465	208552	87	32.3793640629312	22.8706952494412	134.012331639562	2.06158588027504	163.922788063902	2.75045297509468	208	13.812735944464	254	0
46	P3-Cz	209526	209673	147	35.7012040418414	27.8381430184217	133.66655332729	1.71080194867339	167.596547920819	3.08691704851109	209	13.53131659714	240	0
46	P3-Cz	209771	210025	254	30.1059320101775	27.5143638831008	133.646649061081	1.28895821123599	167.596547920819	7.16355056949479	95	8.38885811557304	100	0
46	P3-Cz	210171	210220	49	34.1515215439752	26.4328864002995	129.154366582144	1.90523560379524	167.596547920819	8.44680061653233	150	15.8484122840547	149	0
46	P3-Cz	213574	213631	57	40.4665271031604	21.7050239644835	139.187433676555	3.87671175470105	176.416010462316	5.86633986477696	191	21.9218534786739	190	0
46	P3-Cz	214139	214188	49	33.2699978166927	25.9821368473825	120.130516240894	1.87579956815638	176.416010462316	7.24319358909537	130	12.6163004817056	143	0
46	P3-Cz	214361	214410	49	41.0617275540021	27.015505710893	145.700358762526	2.50906347714784	176.416010462316	11.3740917358348	180	13.2312909956419	179	0
46	P3-Cz	214658	214705	47	32.1544414635517	26.879950017975	122.154902524297	1.52808738733616	176.416010462316	6.0144796448976	151	15.2313257957248	198	0
46	P3-Cz	214983	215135	152	28.3984875314758	25.4902209091876	115.482218245319	1.34530120532892	176.416010462316	7.90520745213464	158	8.83770904952671	182	0
46	P3-Cz	219490	219535	45	32.6030920986489	19.8921994563212	118.157476827038	2.68628428362063	145.220546303033	2.51906223034055	126	17.0810292008175	193	0
46	P3-Cz	234499	234548	49	35.2800883110962	14.820758924342	128.78660523196	5.66654629166877	128.78660523196	5.94924480693536	136	7.960020126219	150	0
46	P3-Cz	269557	269622	65	23.8648894183005	12.4670045909236	90.783182697191	4.07320249603781	107.949776219329	5.23118411095714	162	10.6960613536265	169	0
46	P3-Cz	269790	269843	53	26.7893688542055	13.4587166896481	107.949776219329	4.27483439270518	107.949776219329	2.64570660854232	151	13.7292783012349	221	0
46	P3-Cz	296451	296522	71	34.5441569540531	17.6687201342642	128.205722482103	4.15395697354436	150.664176583712	10.6640497514633	176	10.6911554942166	178	0
46	P3-Cz	296929	296994	65	32.2845051304533	17.8387686753424	117.566758187571	3.65020790934098	150.664176583712	6.84831958326211	134	9.04707547878848	142	0
46	P3-Cz	311642	311690	48	26.980391742861	17.6559843740055	93.714131586941	2.3645824366901	143.639269281497	3.956045752708	189	13.1341033920755	205	0
46	P3-Cz	312066	312106	40	22.2980981167736	19.900263489464	67.4916156057191	1.28250055866867	159.957763332305	2.65449469803465	171	12.6927205842116	242	0
46	P3-Cz	317408	317468	60	31.6136915475395	15.2347728012723	127.337081047639	4.30604396211246	130.612712066414	5.4049385076531	176	18.1312110966007	175	0
46	P3-Cz	320423	320465	42	33.4748409418833	15.7643854700009	111.519059885441	4.77924005024274	120.601966876238	3.13373399495164	148	15.0103612117684	252	0
46	P3-Cz	320804	320861	57	26.8136874818367	16.036841025959	97.5800197809499	3.01824000947245	120.601966876238	5.55521964653646	145	13.6715670161675	153	0
46	P3-Cz	414915	414965	50	28.2619201706849	20.871276702288	101.649504128283	1.83360295029864	169.318783881087	4.94320858671881	187	13.5928394117842	186	0
46	P3-Cz	432748	432803	55	31.9706573573672	15.3993000070177	115.880154778891	4.31023721341243	119.111090190839	3.61332636699825	167	16.7987221812651	166	0
46	P3-Cz	442261	442467	206	31.6592085420504	18.9626575034127	135.607414011638	3.02829273274221	158.7584570701	6.44488010322857	358	12.3881785419475	196	0
46	P3-Cz	443151	443205	54	27.4086264475496	24.5893541024458	92.9014911530328	1.47652108957041	158.7584570701	5.64301408185081	144	14.2585452960235	143	0
46	P3-Cz	443420	443462	42	33.5227338350209	22.2420451214831	111.184399074176	2.57982301258242	156.747101430824	1.13594166517322	118	17.8955553679823	201	0
46	P3-Cz	443670	443759	89	34.7832843582602	20.1482710788719	132.993301172732	3.1860659907769	156.747101430824	3.59908334461907	133	13.420972266748	240	0
46	P3-Cz	554094	554139	45	23.2405734855719	14.0113981545939	84.8435604435911	2.75125428721229	130.963544947021	4.08226672550089	171	11.0141936238474	215	0
47	T4-P4	97507	97576	69	3.85758506144766	1.8118432619095	15.0898622113149	4.53304230332622	15.0898622113149	0.941921206269765	83	1.99621404385274	82	1
47	T4-P4	284611	284689	78	4.50840063965037	2.43803287000486	14.9095566981612	3.41952585941459	19.7095198658605	0.579655221575781	97	0.650550071384502	107	0
47	T4-P4	525801	525882	81	4.95819766092578	2.0173005036971	18.8058444642665	6.04096720907801	18.8058444642665	0.590203608860549	101	0.593941892965837	100	1
48	P4-Cz	21647	21720	73	30.0876044539671	15.9844061108022	132.419994828465	3.61425701394669	163.515951116676	8.21142460597595	162	8.45199104814992	185	0
48	P4-Cz	22642	22688	46	21.5535127349809	18.3760218984226	84.3692932099393	1.47070942889073	163.515951116676	2.54731111273511	61	12.3749574301733	82	0
48	P4-Cz	27263	27344	81	27.696002906562	19.4979026031524	106.854367145583	2.80322102886571	146.605347837669	5.51804341946193	119	10.3682354793746	118	0
48	P4-Cz	27434	27799	365	29.2535301936811	17.6585496883433	146.605347837669	2.92709325230009	146.605347837669	7.67423997399581	124	8.18528183222321	123	0
48	P4-Cz	28837	29001	164	34.4844516311537	14.9875048491161	148.1803098826	5.29404922695186	148.1803098826	8.00669605020386	106	9.74209930678281	137	0
48	P4-Cz	32494	32561	67	28.6494085392102	16.0958122059318	113.438366460234	4.14704328752272	136.84312254822	6.99314287632286	168	14.8646124813688	167	0
48	P4-Cz	32685	32739	54	32.1670212866487	17.2795677973794	130.985536564501	4.53274051643074	142.054851389188	5.30323459851081	124	7.0875871651988	141	0
48	P4-Cz	33304	33454	150	26.5162579035525	20.5087543739759	108.521445618022	2.08770314473534	142.054851389188	5.2260271857695	144	11.5450058178405	206	0
48	P4-Cz	33571	33629	58	26.7098665349851	20.7429850349018	99.8765269085584	2.04853535400469	142.054851389188	5.98910884721172	334	11.7177816079334	196	0
48	P4-Cz	34061	34135	74	31.3179641219648	19.1028609687758	115.498978330907	3.16676168963456	142.054851389188	6.96215995917978	120	7.36686934793637	147	0
48	P4-Cz	34243	34292	49	29.2100320954489	18.9728237161902	117.753976714116	2.93764907568554	142.054851389188	6.92146321881859	61	10.7619079319905	117	0
48	P4-Cz	38328	38383	55	21.7994566804345	18.0820957333016	77.3483420619708	1.68061636299395	170.223078895467	5.2749798659587	159	11.2973263884353	182	0
48	P4-Cz	38487	38542	55	27.5364352180789	18.4642834751119	103.454092319053	2.54900440183924	170.223078895467	8.75140703682087	164	9.39177871388041	163	0
48	P4-Cz	38895	38962	67	34.6599430673088	19.9609211983368	148.18156299635	3.37001627922872	170.223078895467	3.47191321967271	126	16.2661412023048	207	0
48	P4-Cz	39380	39446	66	22.9967280943315	20.8786151876603	83.8089052098952	1.43385051999048	170.223078895467	4.11757298439877	143	11.8311255267735	142	0
48	P4-Cz	39777	40075	298	23.5938080451607	17.1345462225978	111.426455029784	2.20860794707572	170.223078895467	9.14390718958806	97	7.67475160499658	96	0
48	P4-Cz	43838	43893	55	22.2255805010457	16.5965033748399	79.4705359527113	2.04878933872807	160.298953185849	4.6362306729889	175	11.4145560685666	174	0
48	P4-Cz	44296	44345	49	35.8191629540659	15.9710607213545	138.522785756465	5.35413745930519	160.298953185849	9.49201284397641	116	10.389383147347	141	0
48	P4-Cz	44630	44674	44	24.6888830264897	16.1346805258134	91.1697638890795	2.69206170172504	160.298953185849	7.54322026493419	137	8.5953862529226	167	0
48	P4-Cz	59787	59840	53	23.7939735847832	11.2798424019226	92.0630270969836	4.44967084825619	106.96786219007	2.74325216966202	174	11.3625656189503	244	0
48	P4-Cz	68496	68542	46	21.864841928599	20.0157579942396	82.6732727294628	1.29075074404547	183.79495455829	2.68972170667228	193	12.1989900158231	215	0
48	P4-Cz	68787	68935	148	27.8639286526742	19.6808827847702	117.236415246144	2.01581540274306	183.79495455829	8.77494311492216	186	10.6384465115083	185	0
48	P4-Cz	75272	75312	40	34.9699120652706	11.6867193323516	130.070921774886	8.95372707362414	137.964614044604	9.5837054816841	124	13.2592666691308	166	0
48	P4-Cz	79267	79313	46	21.3922819824256	11.8143716038112	66.698774297583	3.27863428138054	105.88180596466	7.90541060560318	61	6.25241921097711	100	0
48	P4-Cz	85558	85601	43	20.1098942641215	12.1569291561016	75.4359556724827	2.73635098496004	113.45887764332	2.01767655805172	185	11.4902621537582	211	0
48	P4-Cz	90842	90936	94	32.8236111492194	15.1278456196041	137.175754418025	5.38039772131387	137.175754418025	3.36588874237715	120	15.035177323805	201	0
48	P4-Cz	91865	91961	96	29.7749097579515	18.3076487785657	130.641511187396	2.91044760892215	137.671069452153	4.65026742133447	217	13.6791014417916	268	0
48	P4-Cz	96365	96413	48	35.9156401440722	20.3983297235496	157.716326617655	3.16389654015503	157.716326617655	2.13157984863515	165	14.7145449541795	267	0
48	P4-Cz	96525	96632	107	22.1042745292678	20.8904512747242	85.0898401630594	1.18897817374638	157.716326617655	6.43721814300428	156	8.34853403188776	155	0
48	P4-Cz	97310	97361	51	23.7129077677298	17.9675161827264	78.4759206758062	1.95647786489489	157.716326617655	1.84672112660907	140	11.4360134677701	218	0
48	P4-Cz	100990	101043	53	28.2294857616943	13.9347165282476	104.408618702515	4.10402178282079	125.279671670072	5.46239229516432	171	13.8809642160636	170	0
48	P4-Cz	102137	102282	145	29.537936050765	14.3840814683699	140.264787811441	4.31485944600095	140.264787811441	5.98761989804529	119	13.2075836187193	127	0
48	P4-Cz	102415	102459	44	20.2710703573978	14.6011194288606	69.594009698818	2.54793980896238	140.264787811441	6.70712355819586	146	7.08384363258508	177	0
48	P4-Cz	106578	106656	78	27.1610882509673	16.0995887252851	109.038982500239	2.92135709287298	125.991315019592	7.11782116705797	146	9.90811477791798	145	0
48	P4-Cz	107343	107387	44	23.4289025002376	18.0998891246547	81.4394792481579	1.76647134804703	125.991315019592	7.10480323251149	84	8.22350131187843	98	0
48	P4-Cz	117016	117062	46	26.6522164325845	15.4327253573958	104.174383496162	4.48336669281678	145.932069358089	5.55570428727931	138	8.11913288451097	137	0
48	P4-Cz	117149	117225	76	30.9300267688347	17.0083056087214	142.180394016789	5.72533978219371	145.932069358089	6.72814740330846	186	16.0060035522956	185	0
48	P4-Cz	117914	118300	386	29.47789430387	14.7634344926871	134.544168305118	4.95682125599635	145.932069358089	7.12864166147058	168	10.7206872663058	167	0
48	P4-Cz	148188	148231	43	31.7529720575308	12.9728110479112	118.23329823708	6.81782591531498	128.060317526993	1.50330693697127	128	18.0796536511577	219	0
48	P4-Cz	149177	149225	48	31.3195715144264	17.0888435529327	119.376881802281	3.76641621751448	145.969473820685	7.08376816433464	96	8.01943039324051	127	0
48	P4-Cz	150120	150176	56	28.1361087165022	15.0499787812313	96.3512358730639	3.81413341407861	145.969473820685	2.64384323478096	151	16.0897549477259	230	0
48	P4-Cz	151695	151768	73	35.5145938664079	11.3845659874121	143.496178287425	9.73152152870113	177.787618689849	7.4774983117027	94	12.493022565974	114	0
48	P4-Cz	161971	162016	45	16.9424698123555	9.06893794776474	61.3989153382568	3.49012177480415	71.5002819842521	2.91818409005673	191	9.21776899244972	226	0
48	P4-Cz	183288	183364	76	30.2861538425799	16.7133680713892	113.980481551132	3.28367595653545	148.645848538102	6.96037608926835	98	9.35706234152754	136	0
48	P4-Cz	187564	187605	41	16.8641529514966	11.3820837538681	51.5139011031991	2.19525770881098	105.411809258019	1.50091711316536	131	9.96449474471881	221	0
48	P4-Cz	192923	192980	57	35.1342090036527	12.8463461882507	130.903157621473	8.12200681205656	130.903157621473	1.82580838650139	141	9.31392263540458	300	0
48	P4-Cz	193752	193805	53	25.2017568586576	14.5160140677684	99.1757286355496	3.52573441326991	130.903157621473	8.97577635206367	143	9.63176267052091	184	0
48	P4-Cz	197714	197767	53	20.0450801376516	19.105943911926	70.5771081879268	1.31647556461675	152.024966915013	5.72455429251904	132	7.62087731625087	131	0
48	P4-Cz	198675	198881	206	33.9940286443493	20.4354456010411	158.854786127211	2.98365732811788	163.297252493507	4.78967353861388	117	14.7516181958317	210	0
48	P4-Cz	199021	199286	265	23.1565826280745	20.8161865089764	119.207206883116	1.59075137563996	163.297252493507	6.169475370239	150	10.2395398027591	149	0
48	P4-Cz	199379	199434	55	27.3511990334314	20.2359306910706	115.599594372724	2.61318331926384	158.854786127211	3.29373957130913	129	14.5077313597327	210	0
48	P4-Cz	203533	203753	220	28.0950678835627	16.4960986620481	155.593245820805	3.11164304888587	155.593245820805	6.02613812997279	155	10.0796695367143	203	0
48	P4-Cz	204617	204659	42	33.3441797626844	15.396862702298	129.609020322585	5.46227994949818	137.502499127106	3.03780267334389	161	17.8014380679036	211	0
48	P4-Cz	208428	208876	448	28.7105647843532	21.0496640583678	138.211256495435	2.20330889444391	153.410878314971	8.23423424265817	182	12.1520996037383	181	0
48	P4-Cz	209183	209230	47	35.4024079780383	26.5525922121224	118.617882526475	1.98764571005602	166.799798218314	15.7202667590825	61	17.297829767844	87	0
48	P4-Cz	209596	209677	81	34.571175271152	26.6589606012922	129.818424398017	1.7869083828568	166.799798218314	4.13583918426336	157	16.3490532699781	235	0
48	P4-Cz	209767	209955	188	25.5215605622436	26.3660466924372	105.406182202146	1.03023685936991	166.799798218314	7.1210050838222	83	8.68156545498645	82	0
48	P4-Cz	210172	210221	49	29.4187697033317	24.7902775120159	114.624304397112	1.53489423461361	166.799798218314	7.74933178721764	150	14.0751511091162	149	0
48	P4-Cz	213518	213632	114	32.637563133884	20.7536786177074	138.908220379349	3.10369509744822	151.129911473356	4.68318401001858	328	14.5302844692186	192	0
48	P4-Cz	214088	214189	101	28.9432660013541	24.8881961691863	124.82356608001	1.78678450124757	159.387451382272	10.1787485934771	84	7.91379142774439	83	0
48	P4-Cz	214361	214410	49	39.7967245288593	26.2133805726134	147.960623123218	2.74998399586071	159.387451382272	10.3971626905111	183	18.7964777706132	182	0
48	P4-Cz	214572	214920	348	31.2336159415707	24.7425345829352	155.909542776184	1.80401301974541	159.387451382272	5.397332034908	158	11.7451732745858	216	0
48	P4-Cz	218686	218753	67	24.1740569635839	17.874430569958	85.4565433444416	2.21879826688459	139.790978500697	4.77422367080383	153	11.9544292572928	152	0
48	P4-Cz	219359	219684	325	24.6505620757417	17.0616071856883	113.480919842916	2.16418358198807	139.790978500697	5.2014991074226	120	9.55132903175898	212	0
48	P4-Cz	223470	223527	57	28.3567385299478	14.3776647548577	102.417451760829	4.20749631377441	113.427061492623	7.60895526868051	169	15.660426925118	168	0
48	P4-Cz	223803	223885	82	23.8145601069817	15.1176651697247	97.4618218834405	2.68333310038546	113.427061492623	5.00087665391385	114	11.428164209355	148	0
48	P4-Cz	234499	234557	58	28.071656499218	13.4341455211975	103.727792016426	4.53355930994195	108.621609560696	4.09277547941063	139	15.4581358211683	147	0
48	P4-Cz	234892	234954	62	19.6256597071353	12.9405966108628	70.2006784685396	2.5920365701889	108.621609560696	5.91555364222916	146	7.08269779985251	171	0
48	P4-Cz	252869	252926	57	25.2024924290637	15.5410278086099	98.6285094388023	2.62982900371833	122.645735367175	2.63792361775014	148	12.7930458428513	206	0
48	P4-Cz	269788	269932	144	22.4404120578531	12.6666590525297	103.93660104334	3.34595830395282	103.93660104334	3.14245672573208	141	11.1377645599057	206	0
48	P4-Cz	270867	270918	51	23.0848674814867	11.294264605789	83.3642973077698	4.48199451620357	97.8031101564819	6.11215169852728	176	10.5199687869781	175	0
48	P4-Cz	280661	280707	46	20.1325988992979	11.6635667125232	69.8316295356089	2.97945566140274	95.5244572847918	1.47092891004645	144	10.5920609482331	212	0
48	P4-Cz	296449	296634	185	29.7093170378774	14.5414829122179	126.943912938881	4.17414894683462	130.690618187281	3.95090705569305	165	10.8080206068008	219	0
48	P4-Cz	311642	311688	46	23.9690515327406	17.0683447007735	90.4136380375945	1.97205438767352	131.137193608132	3.23225108275935	185	11.8837369136057	208	0
48	P4-Cz	312733	312782	49	35.8987767121838	15.2711345043218	141.447313194798	5.57223831288973	143.707104803469	7.09516995749928	135	17.9962184149862	155	0
48	P4-Cz	312993	313035	42	17.9203379412142	15.1315644296722	57.0150275137435	1.59144150412825	143.707104803469	4.74162871567488	157	9.73445360548686	188	0
48	P4-Cz	316957	317018	61	25.7668038342054	14.5320969615457	88.4473318270547	4.23923232064689	111.834684260169	7.18563521193088	138	7.40080256043932	165	0
48	P4-Cz	317272	317468	196	26.6569192477537	12.6481622923459	110.978104818336	4.93968067028264	111.834684260169	5.63545113884244	167	10.6687498065275	166	0
48	P4-Cz	320424	320465	41	34.6742821195895	14.72782017637	125.799815143439	6.36622464063742	129.776388352209	2.56825462040626	149	15.7885144757494	252	0
48	P4-Cz	320803	320861	58	26.2052590177832	15.2643232199158	94.1981708009999	3.45266685109601	129.776388352209	6.89557220092543	156	11.1882411975281	155	0
48	P4-Cz	320970	321035	65	24.369115907802	16.4905662046989	95.9177828464043	2.79275487216656	129.776388352209	6.01621848065365	185	11.0591689170864	184	0
48	P4-Cz	321916	322076	160	25.7595236423056	11.9582952114779	117.075330032367	5.1996502086894	117.075330032367	7.76916440742723	143	9.16349528609486	179	0
48	P4-Cz	330706	330747	41	27.2125399255858	9.57175821413628	103.869154762187	8.08266760698094	120.671540106858	2.73379702665681	252	12.2014191277517	255	0
48	P4-Cz	341719	341804	85	19.9802456635772	11.3886127520006	81.1235974642837	3.07793890925211	97.015728167374	2.92088050432764	143	11.0530198573671	142	0
48	P4-Cz	363434	363481	47	23.9172564986113	12.9626084468707	85.3282948445787	3.40437910793628	97.8636442549785	3.3504861868441	132	11.9871100698349	197	0
48	P4-Cz	385041	385087	46	24.541826080971	10.9323651016387	92.6442097468414	5.03947730730184	95.153138123869	1.96628810498314	189	12.7759475339666	259	0
48	P4-Cz	414915	414966	51	24.2590572280289	20.2967535138116	83.0890188567209	1.58743736010046	176.06358810906	5.16799752260318	189	12.1317090054696	188	0
48	P4-Cz	415263	415322	59	24.9352623792351	20.962350774297	100.988413235734	1.54541176108637	176.06358810906	9.86178909353836	104	7.71133846921018	103	0
48	P4-Cz	415411	415502	91	33.2172634405844	20.1835254150567	130.829967088719	2.78933957071934	176.06358810906	4.08865148007772	99	9.73082336292426	124	0
48	P4-Cz	431620	431663	43	23.137228189377	14.6013688366035	82.4009944033855	2.51093526659576	122.202434454129	3.81806658881306	96	11.1825796155412	130	0
48	P4-Cz	432748	432799	51	32.448355526849	13.9196093438789	111.731228286166	5.43414584061888	122.588519094039	3.5725161207378	164	17.5657771723502	163	0
48	P4-Cz	442327	442468	141	28.3785575618914	18.6469079801192	122.721957098069	2.68221921180226	159.250207839519	6.90034547144436	169	11.8865959842891	168	0
48	P4-Cz	443061	443207	146	26.4003840441611	23.2070830842303	107.371330911636	1.69584272672164	161.562348955918	4.12455378901308	177	11.5788376342779	176	0
48	P4-Cz	443420	444083	663	26.6631309526509	15.8795097017856	156.358111816778	3.62272806554895	156.358111816778	5.91104510763636	130	9.19682116236122	198	0
48	P4-Cz	554093	554158	65	27.0274387388578	12.0911282490608	103.099230260031	4.99661776667928	116.022611597899	2.41994980545626	182	10.4388896710711	222	0
49	T3-F3	399178	399254	76	9.03338017238494	4.43748552220158	34.9003659085186	4.14406613600474	36.3318398725582	2.800706457236	86	3.65258792338024	85	0
50	F3-Cz	27162	27204	42	24.7992285997126	19.191749477181	84.5534238850691	2.47525333473522	147.197168692464	1.8822051192333	139	13.2461329033717	217	0
50	F3-Cz	27434	27799	365	29.0783335282454	17.7564633426325	147.197168692464	2.82778571511178	147.197168692464	7.70774638406397	121	8.15607258412521	120	0
50	F3-Cz	28149	28192	43	27.0201087357235	23.1203240204655	109.364690535574	1.74774430424317	147.197168692464	0.877154207215059	118	13.0003765671607	203	0
50	F3-Cz	28837	28901	64	38.3758108798285	16.483198699792	140.700378278652	5.63424164416045	140.700378278652	7.93523534465002	90	11.6777315042713	117	0
50	F3-Cz	32685	32738	53	30.6656063115995	17.4153968245268	126.347929871939	3.72914667030706	143.186358328365	5.20545143758274	123	7.0858754608716	141	0
50	F3-Cz	33304	33454	150	27.4173715851012	20.5068174094777	113.036211344416	2.05374304855968	143.186358328365	4.9675717323265	143	11.735752185428	207	0
50	F3-Cz	33571	33629	58	26.5850103486501	20.8938513540703	96.9748888219815	1.95010968092462	143.186358328365	6.1347571681277	193	11.9668782887122	195	0
50	F3-Cz	34083	34135	52	30.9795885577478	19.4921562979488	106.492845565256	2.98231128544872	143.186358328365	5.33960693814845	141	15.6827063242647	147	0
50	F3-Cz	34244	34293	49	29.9108430574309	19.1851232551485	119.043663093327	2.93176048501965	143.186358328365	6.94337659277919	61	10.6393941381536	116	0
50	F3-Cz	38328	38382	54	23.5723536037747	18.3275215009354	92.7450004157297	1.87631474249518	171.445312100159	5.51848179180307	158	11.7510429834072	181	0
50	F3-Cz	38487	38542	55	28.1962117108878	18.723371916749	108.036585934594	2.57022274741642	171.445312100159	9.06668156918556	160	9.07582032972684	164	0
50	F3-Cz	38913	38963	50	36.3275987619342	20.3788931395003	145.882013103241	3.61719869504235	171.445312100159	2.51302310041231	131	18.4056003767565	207	0
50	F3-Cz	39380	39446	66	23.8567212163543	21.1433622910149	84.9163559608741	1.46731126575026	171.445312100159	4.1015790158007	142	12.3933430531243	141	0
50	F3-Cz	39776	39944	168	26.0069285039812	18.1764483911081	115.5369863894	2.2921707518132	171.445312100159	9.87489459582478	61	7.93323601996625	93	0
50	F3-Cz	43837	43894	57	22.4528221202975	16.9808134474629	79.1043729663184	1.91688100256417	161.517132571526	4.78429231576513	175	11.5271490617401	174	0
50	F3-Cz	44296	44345	49	35.7370156268666	16.4128447639361	139.538719028212	4.86767542328846	161.517132571526	9.20428123136724	114	10.4277928166877	141	0
50	F3-Cz	59799	59841	42	24.528979267247	11.5228866600869	87.3017330626641	4.53144144006736	103.399519645412	2.04771110627033	172	13.7239794421035	241	0
50	F3-Cz	63765	63816	51	30.5979893735484	13.25100358482	123.091548445058	5.33197661475283	133.345856044091	5.09483184437733	119	9.76029030280965	144	0
50	F3-Cz	68495	68834	339	30.3240755980892	16.991353969695	183.833690394478	3.18507135771876	183.833690394478	8.26371597330652	166	11.5923983491457	165	0
50	F3-Cz	80633	80677	44	21.7131912499774	14.3897689007789	82.7438915275892	2.27687755970102	137.048057324006	1.34541523568628	148	7.5198432906565	194	0
50	F3-Cz	85545	85601	56	19.1142141162865	12.9136418307605	72.1827911234319	2.19086400305849	123.091561048958	3.01637734401265	162	9.14821786412698	210	0
50	F3-Cz	90842	90936	94	31.9565275165383	15.2571838111086	135.685594762723	4.38702800025193	135.685594762723	3.08290531659472	118	14.8998227356462	201	0
50	F3-Cz	91966	92015	49	26.6378847569362	18.0410741469773	100.908267416596	2.18009133399898	132.678097572159	2.90713514886334	166	15.7918057469561	222	0
50	F3-Cz	96002	96058	56	27.061644768575	19.017367042041	104.217941897189	2.2171129781706	157.257950089846	7.13993934129797	132	9.02896998513778	170	0
50	F3-Cz	96365	96413	48	35.8873786387015	20.7807007208798	157.257950089846	3.06696248948544	157.257950089846	2.59775560588846	166	15.1930241511079	270	0
50	F3-Cz	96525	96633	108	21.7963514297325	21.2825134106233	80.8310932675373	1.12329312975683	157.257950089846	6.52836724752611	157	8.89223225572277	156	0
50	F3-Cz	100990	101042	52	27.8892739016451	13.9572649584165	103.322017452508	3.99276517572244	119.567268178999	5.49697138699588	174	13.5332702596869	173	0
50	F3-Cz	102137	102284	147	30.1987979047415	14.4120259317396	142.345332975738	4.39065427610686	142.345332975738	6.31910173143442	119	13.2660638762458	128	0
50	F3-Cz	106578	106636	58	29.738280796291	15.9427906437312	110.261314912609	3.55393355750322	123.570744433448	6.99716974559566	145	9.69462673589581	144	0
50	F3-Cz	107343	107385	42	22.2892084643886	17.912359416516	71.9971902777552	1.63572624906369	123.650662827635	7.12882522516382	124	7.5203225459067	139	0
50	F3-Cz	117149	117226	77	31.799546344264	17.120077169695	143.134357367019	4.09782371214684	148.124084664862	6.76633347771342	185	16.4361285851903	184	0
50	F3-Cz	117914	118053	139	30.14321569387	17.9321635679957	128.761821028152	3.32711985371374	148.124084664862	5.20669030673734	159	12.9925979946694	195	0
50	F3-Cz	118239	118300	61	30.1334016653203	16.4075848891642	124.990224350331	4.10717962016935	143.361976784543	4.9508751852687	157	13.7460902045391	156	0
50	F3-Cz	148188	148230	42	31.8167372364909	13.198905861661	113.634451710945	6.50777365624488	126.080011531067	1.36849621209158	132	18.2218674851514	219	0
50	F3-Cz	149177	149225	48	30.2836971220655	17.2361194483052	117.452774769953	3.4381330132852	153.226895175258	6.90408214789342	93	7.77512994545266	125	0
50	F3-Cz	150119	150176	57	27.5715797599925	15.0953816382981	97.857181274629	3.61032982306836	153.226895175258	2.65031989802368	176	15.8533472463124	231	0
50	F3-Cz	166826	166877	51	20.8058884523305	13.4046816489916	69.7718129695539	2.40912604586967	130.394724581412	5.5039048951491	153	5.69732912570974	157	0
50	F3-Cz	183287	183363	76	30.5642225061584	17.0858975604359	114.081553190887	3.2000083307547	148.943155097063	7.36787332983924	96	9.6256034397109	136	0
50	F3-Cz	192921	192980	59	34.7034378944172	13.2170651430769	130.590110010737	7.50120702680736	130.590110010737	6.60016328683453	122	9.66070414392454	142	0
50	F3-Cz	193751	193805	54	25.9752775555163	15.0105086727378	101.981788832271	3.459427648	130.590110010737	9.15386145977901	144	9.99402265894297	186	0
50	F3-Cz	198675	198880	205	32.8997512237312	20.4026891499919	155.185021742489	2.81060165031721	163.203479436796	4.83596932183548	119	14.4106456080322	210	0
50	F3-Cz	199020	199141	121	23.7230019596674	21.423301576153	116.469205737026	1.54938687625211	163.203479436796	6.4982475243023	114	7.10820168438932	153	0
50	F3-Cz	199220	199286	66	25.4234630809742	20.6854628003093	87.8280350798869	2.01058521051055	155.185021742489	4.92363864858725	151	13.1917707278593	150	0
50	F3-Cz	199379	199433	54	28.3868232814227	19.9873719916926	117.918230911708	2.78703144874029	155.185021742489	3.16195689245126	128	14.8973803458192	211	0
50	F3-Cz	203707	203753	46	30.8831017687118	18.586151482526	106.688802931286	2.76097758108992	159.259773720544	8.72495085280752	62	10.2659082701698	94	0
50	F3-Cz	208428	208752	324	28.1944243660326	21.7587340663416	130.557126640742	1.99097741208243	155.796207500912	7.9431827906709	178	12.251471959171	177	0
