nChannel	strChannelName	indStart	indStop	indDuration	Event_RMS	Window_RMS	EventPeak2Peak	SNR	Amplpp	PowerTrough	Ftrough	PowmaxFR	fmax_FR	EvPassRejection
1	Fp1-Fp2	99632	99684	52	8.8130441709614	5.43996936716349	29.9008849297944	2.6245749854365	32.4286701124124	1.42836982992378	168	4.42711247811193	167	0
2	Fp1-F7	142263	142330	67	4.5980669326007	2.7591748194676	14.5934156120662	2.7771039861278	18.2851682932347	0.458792410842573	111	0.437633374896995	110	0
2	Fp1-F7	408048	408119	71	4.46110951594058	2.78794606496688	14.2282866121104	2.5604543325245	17.7076572975796	0.257779598293385	114	2.70710650378096	113	0
3	F7-T3	97717	97796	79	6.84079015661395	3.52300213364941	32.8722650076224	3.7703939042371	32.8722650076224	1.06333854619729	106	1.09109708860488	115	0
3	F7-T3	99388	99471	83	5.80804030502529	3.39346382454054	26.0681872038913	2.92936032584513	26.4398137928985	1.10270039340099	130	2.92643892642084	129	0
4	T3-T5	97735	97826	91	6.92582654290303	3.5545054976877	31.1730961179109	3.9821724683235	31.7445880733685	1.17037366761122	117	3.5030246286515	116	0
4	T3-T5	98636	98682	46	6.09193393748669	4.41102232193503	20.6149797011676	2.12074114889026	31.7445880733685	1.1221618591009	90	1.51897988074735	113	0
4	T3-T5	99388	99469	81	5.57366839418602	3.53912797068884	23.9023030414397	2.60318761669337	27.9064596658717	1.02000062445029	131	2.85214781498441	130	0
5	T5-O1	548805	548882	77	4.17310333275271	1.60955242171047	15.8065353616432	6.7221473137541	15.8065353616432	0.287670209441469	109	2.84818616809947	108	1
7	F8-T4	233148	233207	59	5.55433713379826	2.97976433330628	20.0715838279956	3.47456658337971	20.0715838279956	0.577450334511513	155	3.1984563765096	154	0
7	F8-T4	242777	242825	48	5.11751571795105	3.07488766308318	16.9162477260995	2.76987303497667	21.9070909277922	1.02475693783142	152	1.08162358927502	165	0
7	F8-T4	337226	337274	48	5.22484552027302	3.03766372674748	17.5603326086841	2.95847237557679	19.5917855653357	1.18200324798754	183	2.63925255550978	182	0
7	F8-T4	404675	404721	46	5.12772554700171	2.75445423660097	17.0182324106191	3.46559989641397	20.5287063819599	0.404102053808899	139	2.76626147970876	198	0
7	F8-T4	547686	547732	46	4.46828400591763	2.86385108309813	13.3784111162356	2.4343368632177	18.9655616844836	0.344684142705169	180	2.47378465280544	204	0
8	T4-T6	3497	3631	134	6.04169854109977	2.11890034724723	24.4756436202833	8.13012156173149	24.4756436202833	0.785985167234439	83	0.870228506101147	109	1
8	T4-T6	45656	45767	111	9.22359529999445	2.15360040548662	42.7625892158851	18.3429942553897	42.7625892158851	1.39364255742956	116	1.60576346382539	124	0
8	T4-T6	47286	47382	96	5.62780660895965	2.51359507578446	20.2179747715219	5.67417273749891	20.2179747715219	0.856958937665272	90	4.45744207010369	89	1
8	T4-T6	48195	48285	90	4.66531185163433	2.61971672868291	16.1245703488122	3.88778862081289	22.1090681375193	0.564885569438574	86	0.399714372867118	85	0
8	T4-T6	49478	49573	95	5.50079142805086	1.7433629121525	23.0201538435526	9.95576762091662	23.0201538435526	0.470618092206407	NaN	5.01548317922511	300	1
8	T4-T6	138337	138414	77	4.94636517813678	2.14669032379044	18.8175939136127	5.3092546343495	19.6208856498985	0.551374209374241	111	3.02889706374691	110	1
8	T4-T6	144211	144305	94	7.82465056124172	2.32879277714758	29.112192274484	11.2893311489004	29.112192274484	0.421357228674033	99	0.574901734251474	98	1
8	T4-T6	146947	147032	85	6.2247279058004	1.75916896625277	26.1961062094465	12.520614230606	26.1961062094465	0.763719858006068	105	0.650090217672451	104	1
8	T4-T6	148216	148300	84	5.3550290622271	2.151876577042	18.8668703630875	6.1928269953602	18.8668703630875	0.511930593656763	83	0.566619428919711	82	1
8	T4-T6	157141	157277	136	7.42850592291446	2.53618818948131	35.2037358461693	8.5790657512888	35.2037358461693	0.966371767303026	92	4.90285990903055	91	1
8	T4-T6	178630	178813	183	5.568351209233	2.27852106519805	20.9316855775856	5.9723760172212	20.9316855775856	0.488422885286769	107	0.578560855767517	106	1
8	T4-T6	251545	251626	81	4.75001156498748	2.24452402314273	15.3956135597772	4.47858496702596	15.9911249574375	0.801046231983072	83	2.76594174769136	82	1
8	T4-T6	261805	261879	74	5.97184178897328	2.28007200883555	21.8888726425119	6.85992647535963	22.5231962924644	0.423113092076152	102	0.551028451625989	106	1
8	T4-T6	273123	273213	90	5.82816202959181	2.13020786258381	21.2846366212546	7.48547333498268	21.2846366212546	0.678712536073374	94	0.645507188291091	93	1
8	T4-T6	326447	326637	190	5.2283942646262	2.12052218432781	21.9356283022356	6.07926420958653	21.9356283022356	1.20558117267549	91	2.40831086233646	90	1
8	T4-T6	338675	338776	101	4.95700893858033	2.42583575987379	18.6669492648267	4.17557815101361	19.161189958909	0.749598335288423	116	0.792303248458809	115	1
8	T4-T6	379782	379855	73	3.92722349008198	1.89773389202765	12.3196737567663	4.28253189249882	12.4546611885798	0.552995394207773	87	0.457507027406417	86	1
8	T4-T6	412755	412831	76	5.29132820170632	2.54392203743834	18.1189922740118	4.3263515369964	18.1189922740118	0.416956357821742	83	0.887338903417089	101	1
8	T4-T6	437923	438005	82	4.74279573415917	2.03034797935651	19.1889707570513	5.45667246212269	19.1889707570513	1.07402838147891	83	0.669452985405676	82	1
8	T4-T6	464214	464296	82	7.06778144817175	2.53596244332184	27.9797340618403	7.76748795224256	27.9797340618403	1.21899206416077	83	3.93866988211044	82	1
8	T4-T6	514438	514552	114	11.6435228170628	2.02370755835542	73.7107246682278	33.1034524325718	73.7107246682278	0.929043902738603	NaN	8.55644797441145	300	0
8	T4-T6	558561	558650	89	5.50564921692708	1.98244493156095	20.7017353977885	7.71284867404417	20.7017353977885	0.711457104387982	87	4.10676601690546	86	1
8	T4-T6	569809	569878	69	4.98572800725274	2.40090311337273	18.240787677148	4.31228935962508	19.198376837215	0.506174984821439	91	0.618919249128472	90	1
9	T6-O2	3498	3593	95	5.16832657095306	2.02350689453276	19.9722262356742	6.52364798122867	19.9722262356742	0.572125299655441	109	0.510233140890573	108	1
9	T6-O2	10106	10179	73	4.81489019228843	2.22362035043458	17.662308520517	4.68868972525494	17.662308520517	0.332572528804724	100	0.523199477577126	106	1
9	T6-O2	11394	11509	115	4.30706331023802	2.3716519665739	16.2395706997549	3.29807551605881	21.6918449037225	0.282891319546719	177	0.561550495775061	300	0
9	T6-O2	25738	25819	81	3.79726990660918	1.6702455218278	13.521513887755	5.16871163066613	13.521513887755	0.487458488463525	106	0.390606340096402	105	1
9	T6-O2	39225	39280	55	4.51919675278566	1.87411707389975	16.5340017430279	7.97557788591196	16.5340017430279	0.989810842997225	86	0.51139700910775	85	1
9	T6-O2	39391	39529	138	4.03148485317642	1.75803459646091	14.0494219218161	6.27185685412679	16.5340017430279	0.440928227516369	83	2.89310067716792	82	1
9	T6-O2	45573	45766	193	6.88363291529496	1.48464989733509	40.1732712626097	21.497467446566	40.1732712626097	1.39234923270609	88	1.56127535083658	106	0
9	T6-O2	47233	47286	53	4.27072301488359	2.21347338042049	13.8084706951869	4.70886558081558	16.5148113277629	0.745905409311514	83	0.757086974340761	82	1
9	T6-O2	48194	48336	142	5.3373863994751	1.9698026048054	21.7435547556707	8.18218662002931	21.7435547556707	0.33890610578721	NaN	5.02170877695966	300	1
9	T6-O2	75655	75829	174	4.5236595672608	1.69506798833708	18.2128471956922	7.12205927620947	18.2128471956922	0.30211912929104	NaN	3.80735798591468	300	1
9	T6-O2	91873	91942	69	3.73971824654055	1.76759400492345	12.3228230883182	4.47623343479749	13.0798716645526	0.370133651746483	97	0.378520088477233	96	1
9	T6-O2	131325	131437	112	4.18136010880929	1.42462285864714	16.6671179619819	8.6146041569057	16.6671179619819	0.458872665203588	112	2.59783959063217	111	1
9	T6-O2	144212	144455	243	5.50322035558391	1.8259843514395	27.5799159961637	9.08321727791025	27.5799159961637	0.331750251645397	NaN	6.23903371763126	300	1
9	T6-O2	146932	147037	105	5.92026398907291	1.59941653820926	24.1239634854475	13.7012118216849	24.1239634854475	0.558605982140629	112	3.52355576652773	111	1
9	T6-O2	148194	148374	180	5.63849023058684	1.80941761099165	24.0681454117998	9.71064413018658	24.0681454117998	0.523444001184306	83	0.477602283732794	82	1
9	T6-O2	157152	157276	124	5.61616354525054	2.37223343476712	24.1625638006636	5.60485842414871	25.4678088799911	0.531826287247204	95	0.538702022829703	94	1
9	T6-O2	162718	162795	77	4.54104965005653	1.54442665597615	17.3437327348803	8.64525729969203	17.3437327348803	0.651819776420796	83	0.443674388067028	82	1
9	T6-O2	178404	178637	233	4.7112588457999	1.98558467346737	19.8491050627379	7.211160817338	19.8491050627379	0.326426387705352	NaN	5.54535231692445	300	1
9	T6-O2	178728	178818	90	4.69882982867954	2.3342555050513	16.5590760275059	6.83624794659215	19.8491050627379	0.545344936505069	84	0.625121820235794	111	1
9	T6-O2	193744	193816	72	4.50908757776929	1.88388201967964	15.7778687946749	5.72888281422002	16.179256461905	0.438895633183141	83	0.55966762424731	82	1
9	T6-O2	230477	230569	92	4.13014226124349	1.473143335711	14.4289136970893	7.86031609684201	14.4289136970893	0.540016455932498	79	0.562323108285365	83	1
9	T6-O2	233428	233507	79	5.85993643344369	1.66043381597997	23.3438567922835	12.4549695720658	23.3438567922835	1.05027876060691	83	3.27910264839632	82	1
9	T6-O2	245401	245471	70	4.85223584264349	1.70298537865443	17.8140732359215	8.11824146528183	18.5534143993178	0.352936308040309	191	0.661935947543955	300	1
9	T6-O2	270802	270868	66	5.48172115010105	1.8729967349077	18.1210011403608	8.56564041231894	18.1210011403608	0.357178344204891	120	0.257041592973518	119	1
9	T6-O2	273122	273199	77	5.47198575502107	1.73207994355766	18.2619429971957	9.98054025283197	18.2619429971957	0.897687644344312	83	0.385595669479946	82	1
9	T6-O2	326474	326574	100	4.93713487148096	1.73825857602816	18.51946242319	8.06717022738465	18.8128777900592	0.336501427821907	NaN	4.68596928652645	300	1
9	T6-O2	338672	338754	82	4.73657225970963	1.98185829148957	16.7297694314884	5.71193344428899	16.7297694314884	0.651407778965807	83	0.865674798978159	112	1
9	T6-O2	348375	348444	69	4.31928329984174	1.91424386250833	15.2664390727583	5.09130194012012	15.2664390727583	0.557024964343774	97	0.592140211628912	107	1
9	T6-O2	412522	412624	102	4.79228679101466	2.07918365469694	19.4719349961863	6.53814857235865	19.4719349961863	0.924051082583687	83	0.335998439133293	82	1
9	T6-O2	412741	412833	92	4.57605792345112	2.12780524798741	15.6991301945323	5.93812711534568	19.4719349961863	0.59508833688564	85	0.681962756381177	100	1
9	T6-O2	420751	420844	93	4.75976192930786	1.57886738380292	17.7390197851886	9.08822678231073	17.7390197851886	0.368730676238217	116	0.39462458070671	115	1
9	T6-O2	464199	464292	93	7.91386335375952	2.17898245111246	31.6380301678379	13.190754246036	31.6380301678379	0.692718288596729	114	4.60403640803228	113	1
9	T6-O2	469604	469662	58	3.76925277787783	1.9055851704799	11.7160438540373	3.91249502497021	15.2838003751194	1.38805516878671	83	0.533957750852219	82	0
9	T6-O2	511541	511632	91	4.16595170611182	2.00162860410808	15.2318005679443	4.33173085742643	16.138617153941	0.547158548623315	83	2.54134983873439	82	1
9	T6-O2	514429	514557	128	11.2568928491151	1.51656298885821	73.6154781700575	55.0955037682286	73.6154781700575	0.816325584800545	NaN	8.21308611411262	300	0
9	T6-O2	541616	541735	119	5.00073775079905	2.14683615771456	19.7258676559578	5.42588215727013	29.4454798027668	0.331833633440704	NaN	7.92595555565203	300	1
9	T6-O2	553245	553326	81	5.10203685584097	2.24112727743556	18.0185231914797	5.18267696152952	22.4648109231962	0.821872114116899	83	0.40582959313642	82	1
10	Fp1-F3	142037	142098	61	6.48247993984883	3.90889469375888	23.3154395777237	2.75026423853841	24.2450639290632	0.864267915617259	151	2.66390100084841	150	0
10	Fp1-F3	598673	598751	78	6.98545129024759	3.13564324527485	22.114031056854	4.96290139468156	22.114031056854	0.425660033559753	116	4.23976997312658	115	1
12	C3-P3	236599	236641	42	10.4866686570819	5.24760798205096	33.0147109135087	3.99348745059878	35.6253192924859	1.98707214038842	177	5.20340880442809	176	0
14	Fp2-F4	200536	200584	48	8.32110794535757	5.11550802766795	27.9859759890072	2.64596911612862	34.651171590602	0.421690860033342	139	4.53313455433013	207	0
17	P4-O2	11235	11299	64	4.16989529767709	1.75994660551107	13.9003084232836	5.61372735982334	14.6386113033125	0.948409007065243	83	0.426705058795575	82	1
17	P4-O2	153575	153666	91	4.04318169216019	1.49321029383099	16.7436030716782	7.33169796822674	16.7436030716782	0.695736472260664	94	0.487359781019832	93	1
17	P4-O2	157258	157349	91	3.85731665920685	1.61048271164992	14.3035636837383	5.73665129231637	14.3035636837383	0.266227681046308	219	0.587065811648563	300	1
17	P4-O2	290623	290711	88	3.74373336950362	1.46558579893535	14.7018368765872	6.52510229668433	14.7018368765872	0.46034154852771	87	0.402415405986942	86	1
17	P4-O2	435401	435465	64	3.50634979222574	1.74592919213391	12.7894264078616	4.03326934013331	14.0001661678145	0.738526198880326	83	0.480184208537753	82	1
17	P4-O2	564515	564586	71	3.69712931969891	1.64030497836236	14.0300420073363	5.08019143036182	15.1362777978915	0.61271586491432	111	0.731916278707206	110	1
18	Fz-Cz	2764	2816	52	36.8439279440271	21.8518789696582	116.546171208296	3.02561985512685	158.863819978035	4.21548693957548	140	19.9370653598279	197	0
18	Fz-Cz	3259	3309	50	39.7468995162565	24.5360583290113	150.090791299905	2.7170113790604	158.863819978035	10.7496324942145	120	14.2584428517552	162	0
18	Fz-Cz	4548	4614	66	31.8957969989971	24.1046477570789	120.297079892531	1.75091610826371	176.699532852024	7.26149150054752	187	18.6004448991977	186	0
18	Fz-Cz	9712	9762	50	33.7581176230579	20.422460288843	132.126422601818	2.7323751291161	163.675819951757	1.81169273506365	123	18.0453823404914	195	0
18	Fz-Cz	14194	14267	73	41.740186409047	22.1980208936899	142.45664907178	3.78720498158722	157.15670409842	8.3077198455685	105	13.2265127340626	126	0
18	Fz-Cz	14919	15000	81	35.468811107988	23.8315739409626	129.136876192211	2.40622665457512	157.15670409842	9.41333113047866	111	9.57718821474285	114	0
18	Fz-Cz	19221	19268	47	33.2428825716561	22.0705323018764	115.075964406857	2.2686721283139	162.591183147149	9.87054060313497	145	11.0861481980182	181	0
18	Fz-Cz	30835	30965	130	39.5578244605755	22.2155616775662	155.182092108066	3.17066385551075	157.700919480749	2.8853760117463	136	17.7506142872699	198	0
18	Fz-Cz	34053	34110	57	30.8367146415949	22.5658242197211	112.038903832903	2.09277251732492	180.745160962698	3.69710716849302	193	18.7519942143838	204	0
18	Fz-Cz	34600	34650	50	30.4081760760716	27.1660989138073	122.855933641416	1.31425688289943	180.766585422075	4.84130482201572	189	16.4658046959008	188	0
18	Fz-Cz	34828	34992	164	31.2051658747809	28.5434569583326	149.399508261244	1.20946178442708	194.734688596433	5.99969163567663	173	13.3609396179642	220	0
18	Fz-Cz	35490	35541	51	29.9138293741087	28.2633833308245	108.99464025912	1.15169976012307	189.137156159997	10.8368916467062	101	12.9151280908263	100	0
18	Fz-Cz	36299	36365	66	28.8460525674553	22.3978781819667	101.205423832438	1.69410885062173	189.137156159997	4.69877465934898	168	13.1644978278065	167	0
18	Fz-Cz	41129	41188	59	26.4010338436138	24.0766557301356	106.376455348824	1.23862703221423	160.481251519088	7.28136771328107	147	12.3604484960279	175	0
18	Fz-Cz	41380	41448	68	32.4675885594265	22.5879529134367	115.213755519973	2.08973871761047	160.481251519088	4.49534429379515	134	16.9817417206839	153	0
18	Fz-Cz	44862	44906	44	30.6430632448854	19.5282420815437	103.227269096891	2.60152244837789	171.879698259861	6.53419199435444	163	13.5148219510363	174	0
18	Fz-Cz	45165	45210	45	35.3322287959575	21.7931727394282	133.397339052846	2.68893340667989	171.879698259861	3.7321054614915	127	18.8120894796829	197	0
18	Fz-Cz	51181	51233	52	39.6165835679414	26.5500382146213	160.435630012495	2.26020488712624	178.959067905277	5.96440806381523	163	6.40425872637792	167	0
18	Fz-Cz	51583	51630	47	31.6690237953888	24.5672957102327	107.43748627141	1.78850640082109	178.959067905277	2.82854601645222	169	17.5315108888593	231	0
18	Fz-Cz	52189	52259	70	31.8295960367437	20.0931700895566	118.774562595333	2.83964524142083	169.375449915375	6.96244880324395	164	15.4979697735793	163	0
18	Fz-Cz	57645	57733	88	34.5497744988041	22.1657512399513	126.5755752595	2.50466490900479	152.691122854292	5.12422315018769	136	15.9920724526298	211	0
18	Fz-Cz	57895	57944	49	32.6494648752236	22.3816117482825	108.101198082965	2.27447824969522	143.629854514841	3.63264011191659	142	18.6544673791301	199	0
18	Fz-Cz	59425	59486	61	31.9672846066284	20.4193946805066	121.087885630955	2.64393570700271	136.601183554889	10.5273716522964	98	9.23572678110198	97	0
18	Fz-Cz	59608	59659	51	32.74274784934	20.0810369386973	114.423506090703	2.89759296123302	136.601183554889	4.94390975531014	166	17.0063000872087	165	0
18	Fz-Cz	59783	59834	51	29.5257596270545	19.4654960455089	106.816452732389	2.57421033174719	136.601183554889	2.27688243463903	163	16.9091826856414	220	0
18	Fz-Cz	63707	63784	77	35.1647048085605	17.5004341058359	127.073588730009	4.03753508048456	150.864981259311	7.42526430704761	168	7.43071621389199	167	0
18	Fz-Cz	83015	83099	84	39.405662234072	21.3757430542088	135.195677781077	3.66400462818302	153.765594266555	8.59792754877038	140	11.4743301064641	151	0
18	Fz-Cz	83367	83417	50	29.8771073045476	24.7182375936381	108.868638965773	1.62244439202273	160.087781121023	6.68044095198399	156	14.362431461	155	0
18	Fz-Cz	83926	83972	46	36.3938024195952	25.4245517018642	123.086042996527	2.21364580527761	160.087781121023	3.92032976924456	144	17.4351141470344	200	0
18	Fz-Cz	88730	88794	64	33.4189935213587	22.5516961933668	120.007687195822	2.31701786937983	157.791865140601	5.97591666217511	142	14.4586585684556	141	0
18	Fz-Cz	89383	89438	55	37.826614805894	21.0384766605243	143.606367272457	3.40703924531163	157.791865140601	8.05107927301543	169	8.11518497824344	168	0
18	Fz-Cz	93105	93163	58	37.3280231980768	22.1483215907884	147.635746560801	2.94620569076834	160.74184163121	5.02507068208857	121	20.8204236804029	206	0
18	Fz-Cz	93885	93935	50	34.1089340901462	23.7137474731891	136.583075603293	2.16618996810906	166.140109489869	10.1233887425983	178	17.9015124769895	177	0
18	Fz-Cz	99333	99381	48	33.2394791994403	19.8987651764651	114.566100388705	2.79033384732096	162.814639306368	5.13674186604544	162	19.6298167610066	168	0
18	Fz-Cz	101928	102013	85	33.1895159071301	18.9697162083433	124.245289672734	3.51082105385617	176.003197419738	4.55272473115436	132	16.6148660447641	213	0
18	Fz-Cz	102110	102168	58	43.3156182898518	20.4773103968251	176.003197419738	5.34206284373458	176.70628858891	10.233671238997	170	16.7763034648998	169	0
18	Fz-Cz	103089	103134	45	43.6954692850584	23.1631823920551	174.165060141479	3.85085625332108	176.70628858891	3.83388794756987	134	23.565297080338	198	0
18	Fz-Cz	107298	107481	183	34.9618217387196	22.5796782289846	163.530177253054	2.68058717930595	163.530177253054	7.03149714014884	104	15.0511020318014	197	0
18	Fz-Cz	107903	108073	170	32.9515458484249	26.9535791851738	133.913972544218	1.60560957136727	196.013367242637	8.76015801717086	178	13.5989427324502	177	0
18	Fz-Cz	113004	113053	49	36.8872931927605	24.4914111657606	132.747947491534	2.40990828921712	173.078492372989	4.27807766017266	161	14.1499452213717	204	0
18	Fz-Cz	113599	113650	51	29.2604786174495	27.1686255078206	111.554074792855	1.22735004188895	173.078492372989	4.18828281004504	172	14.4909621784634	177	0
18	Fz-Cz	113750	113804	54	39.6162318076121	26.2726013762404	131.633274284224	2.34932078821563	173.078492372989	13.7960642959324	134	14.6786793285482	167	0
18	Fz-Cz	118403	118493	90	42.0054898610486	22.2021209591283	188.413237553526	3.57950669207875	190.059290436679	2.74399332241577	167	14.861792827276	204	0
18	Fz-Cz	134630	134707	77	36.7914860759711	17.7930215098919	138.758102833473	4.27558212501502	166.088264812081	6.84483012276195	129	8.00917467878485	142	0
18	Fz-Cz	135868	135936	68	33.1446015536686	21.985858925184	131.961546257407	2.40369290551546	155.416862384615	8.67382623507856	149	15.6199169541705	168	0
18	Fz-Cz	136124	136169	45	40.0313540058311	20.6237263491261	147.42495215629	3.99347583975261	155.416862384615	10.1673176651597	180	17.3116268471007	179	0
18	Fz-Cz	140815	140864	49	33.3198223008795	24.3103416549752	112.176402488279	1.96738289323649	176.149986393753	9.45236683393659	158	17.1533357074003	184	0
18	Fz-Cz	141015	141069	54	39.1746016375687	24.1238116278709	131.370766224271	2.69988274092787	176.149986393753	9.02202105678533	130	10.1190963908894	131	0
18	Fz-Cz	145684	145824	140	29.2747790016626	23.0991108094793	119.756141340077	1.60618929096029	166.025657640023	4.90069460685653	164	13.3978194728596	226	0
18	Fz-Cz	151153	151204	51	34.8387564068973	23.4685624377583	137.219983130023	2.23993457018794	144.351545179417	2.87860292811105	164	19.5075099199157	211	0
18	Fz-Cz	152099	152156	57	29.1393170618862	20.6604153542207	91.8425702419975	2.14096867720804	144.351545179417	6.47317653954491	166	6.84592174976109	177	0
18	Fz-Cz	152481	152532	51	27.2611726569408	19.0338719162918	97.1211023266393	2.13709111808277	144.351545179417	1.46979251474308	216	13.4874650986753	269	0
18	Fz-Cz	157365	157429	64	29.8772745063515	17.2870474710277	100.709957394722	2.9870349591566	145.97990187027	5.49224619447956	140	17.4212833947992	154	0
18	Fz-Cz	168333	168387	54	40.1463624042984	22.8894327163195	148.413634222091	3.07625507066579	163.807147619436	5.10817298575872	NaN	20.8489460385986	300	0
18	Fz-Cz	172813	172879	66	34.3261624561026	22.4653029832867	116.997636897151	2.4050386645259	162.354573793958	3.5450007699273	149	20.0713669284782	193	0
18	Fz-Cz	173027	173079	52	32.3594908192135	24.1764355135188	127.277153280344	1.85689276216056	162.354573793958	10.9067175750953	171	10.9514620238111	170	0
18	Fz-Cz	182978	183028	50	33.7078695976057	24.076632041821	128.912870694598	2.12306450736238	173.55689351324	8.42587689774805	148	9.20135298817748	147	0
18	Fz-Cz	183127	183184	57	33.3316888974634	24.5738637286593	111.043205348391	1.9757592196739	173.55689351324	5.65328971579677	134	9.80877785483502	154	0
18	Fz-Cz	183434	183498	64	37.2927147205596	24.6485749531983	148.207545780766	2.4067499246954	173.55689351324	3.80361754276457	133	15.2718223820212	218	0
18	Fz-Cz	187565	187705	140	34.1710225554127	19.8939317109566	153.899172481257	2.95035791545094	170.594056485975	7.26899804454456	142	7.83527560787691	144	0
18	Fz-Cz	189446	189490	44	36.1235107335529	16.3964746310331	125.911236332429	4.85376717242232	137.450060708647	5.662667538165	181	16.32367565854	180	0
18	Fz-Cz	193492	193534	42	27.9917869147332	25.312349141662	88.5333028980777	1.3396876937473	157.542886625787	4.96248155955379	161	14.653704110584	211	0
18	Fz-Cz	194009	194075	66	30.7689026042834	25.4714447095281	114.522063907764	1.57259302211954	157.542886625787	4.40923547073815	112	5.79438068692909	122	0
18	Fz-Cz	194295	194393	98	38.317121038434	23.6243923399472	151.540341590431	2.72289138297492	155.040935575443	7.8194168127785	172	21.9203002839531	179	0
18	Fz-Cz	198256	198322	66	36.3527606804041	19.3897340811724	137.36667918857	3.5150466142736	187.560843559117	7.52134318224026	129	9.25134820764888	156	0
18	Fz-Cz	203838	204037	199	33.7437050097649	24.7359792185338	157.23164128467	1.93140746397058	168.916120187878	9.49010042343055	167	14.181899675279	166	0
18	Fz-Cz	204670	204738	68	35.1683164822442	23.8347929429792	128.650031005675	2.45056608699346	168.916120187878	9.77553547082485	164	16.8573531853392	163	0
18	Fz-Cz	208703	208754	51	29.7439978496343	23.8387553216209	99.9353085304206	1.59618063489201	154.543784228933	2.49977624892697	163	13.1575685318341	196	0
18	Fz-Cz	209284	209326	42	34.7341834228914	26.6714658653896	122.454527820887	1.73120156034728	159.923100973287	10.7590638729057	146	11.7290714197287	180	0
18	Fz-Cz	210221	210476	255	29.1242264711745	23.2209569038687	128.889300927656	1.61703890819801	159.923100973287	4.55884422538772	160	12.2593869004251	216	0
18	Fz-Cz	215533	215573	40	33.28369479257	16.3651047177817	114.120099788283	4.13642814596633	128.805497489382	3.53311586336149	170	18.0176114808108	216	0
18	Fz-Cz	235899	235966	67	42.6220222557798	19.0059785311248	174.692614996078	5.02906946366466	174.692614996078	15.0588697974521	156	15.1116838106269	174	0
18	Fz-Cz	245525	245584	59	36.0643876281451	22.3127677622664	147.24644003939	2.7872740974854	164.509860318948	5.46148389883534	189	17.8230959003363	188	0
18	Fz-Cz	245723	245793	70	36.6905625676298	24.1188715901214	117.812100472141	2.40613528482524	171.869141306416	2.68933019370773	127	17.8230002899915	231	0
18	Fz-Cz	246847	246904	57	27.7819191867481	21.3192486200159	92.4971787095825	1.69816817987311	171.869141306416	3.17826447545307	161	15.9211301517332	169	0
18	Fz-Cz	250158	250200	42	23.2896627118828	18.3161105971005	73.0750856632225	1.70873227228658	152.997019580429	3.41079617710288	192	12.6019306100938	216	0
18	Fz-Cz	250416	250469	53	31.3979140908784	19.5747604525734	110.459034997915	2.59652518383486	152.997019580429	6.74128845983946	150	7.04390270709459	174	0
18	Fz-Cz	255398	255448	50	36.3452694807211	21.1118166109247	133.795944839892	3.03947794493529	149.646949150605	7.78348228457511	177	18.0257250368987	176	0
18	Fz-Cz	256263	256304	41	31.0364424627772	26.4292082776412	105.324504554123	1.41196158415366	161.28710645125	3.58561869224841	104	17.1405171944814	205	0
18	Fz-Cz	260510	260564	54	40.809808338797	16.9813218376666	133.511437254502	5.77545393492748	136.041092118743	10.4587544368104	164	13.0052066417946	163	0
18	Fz-Cz	261909	262188	279	30.0660773972633	24.7089311456206	148.939674135341	1.48062686073662	167.046872119925	4.93768089822853	156	10.5790188875744	233	0
18	Fz-Cz	266662	266706	44	32.5330805810203	21.9107303083208	101.318734783096	2.76541005068467	169.346588591135	3.23685220991547	156	18.5355843530749	198	0
18	Fz-Cz	267182	267261	79	44.4229110031376	24.310680046615	169.346588591135	3.57042991781676	172.693182175336	6.74360712269674	190	22.5141915559077	189	0
18	Fz-Cz	267403	267482	79	35.0121590741597	25.733110695313	126.719817097997	2.05424906382585	172.693182175336	7.25713204974028	243	16.4351451513227	238	0
18	Fz-Cz	272417	272470	53	35.2910569826338	21.1973975642316	121.103098979872	2.96247671453771	140.877613688295	7.86295370789461	170	15.4830943829081	169	0
18	Fz-Cz	272610	272661	51	39.1491487179078	20.6031819770607	133.788466925998	3.81533012987801	140.877613688295	6.34103555290144	168	19.8947093787002	171	0
18	Fz-Cz	277088	277130	42	24.2598462598768	13.0084661873565	77.3764012047732	3.47795456140567	123.925035718596	2.14680105641108	165	10.3112549053359	203	0
18	Fz-Cz	307660	307710	50	32.4874458985263	18.4859038283609	117.003404923333	3.08851532000462	179.625244674395	7.90470969754666	70	13.9570916539807	96	0
18	Fz-Cz	312921	312986	65	38.2350388908639	18.1742654052766	145.135265863737	4.42597891545785	156.035016718771	8.29298677684415	135	7.88267463386013	134	0
18	Fz-Cz	314241	314305	64	34.5526435857968	15.8544672179791	129.587697013623	4.74962428063629	136.14744117915	2.83380651369882	156	19.4800753911636	207	0
18	Fz-Cz	318742	318788	46	34.6825740655798	19.1667594261085	129.372487243503	3.27435121611018	142.78068292377	7.59467548365178	134	8.93725906512967	159	0
18	Fz-Cz	328859	329014	155	30.7047478232124	17.9013193707638	121.50795447045	3.25889293675876	171.750166782109	7.44449442234118	61	10.7571351658534	82	0
18	Fz-Cz	329101	329160	59	30.1376590144081	19.5989753998387	107.220792289022	2.80358178933563	171.750166782109	7.4537673616209	178	8.37104552930003	177	0
18	Fz-Cz	329952	329992	40	30.059491327218	18.4113086425925	105.09270982865	2.9842834148626	132.111804617246	12.6625276236161	99	10.6502232871307	98	0
18	Fz-Cz	356085	356215	130	33.7402317737498	20.5910289423569	158.575992469834	2.68497363241811	163.926193422051	10.3919810626567	133	11.9448198304595	145	0
18	Fz-Cz	362247	362289	42	27.6548643832476	13.0715324164412	94.1732658321541	4.47599979150566	101.302574702807	5.10619657006746	61	13.6773605451269	91	0
18	Fz-Cz	366229	366271	42	32.0177303398962	22.9211263450242	118.867529317821	2.16979158746385	180.433874305066	4.11846316697804	183	17.2700300373769	224	0
18	Fz-Cz	367117	367188	71	44.0733829235993	20.5761153640024	168.247048659564	4.73593088797341	180.433874305066	9.70449950902551	131	14.8879723249067	130	0
18	Fz-Cz	372242	372292	50	35.2987131447334	27.4729655929261	128.618935770262	1.73901161196919	188.405987097373	7.57824607017659	215	14.1989108754391	214	0
18	Fz-Cz	372424	372576	152	34.8812188974594	25.7365537923114	143.625356044509	1.88023916600911	188.405987097373	8.89214260186374	165	12.5010736655249	164	0
18	Fz-Cz	376010	376062	52	29.0633795883483	22.3835927332904	107.470702965133	1.68590321050744	173.592385460488	3.07353137844929	139	17.0530620465825	194	0
18	Fz-Cz	382198	382261	63	35.5066000106666	24.3698898142521	127.988137090371	2.12280960675443	154.836852829145	3.4574702623028	174	13.631366675836	196	0
18	Fz-Cz	386534	386654	120	38.457382084437	17.9151576546505	143.906447999827	4.63154224324761	164.711874513744	5.26603106010751	160	18.8523303187454	203	0
18	Fz-Cz	387646	387711	65	35.2360549509524	22.2951335315785	135.960140340319	2.55905054189729	166.34565136471	2.16403582760809	157	14.5104682778859	222	0
18	Fz-Cz	388045	388109	64	27.9524810926245	21.1315815945358	93.8045648237421	1.86294334182397	153.823061962279	6.21911357722846	167	12.6029591534483	166	0
18	Fz-Cz	392122	392170	48	35.7490803264203	23.8868179263961	128.201060270644	2.6783814497368	164.420186055187	3.18302235750565	153	18.8636911849761	196	0
18	Fz-Cz	392390	392598	208	34.8796670861508	26.0824695996832	154.787661246303	1.94590216652716	168.670781219877	5.16253155920278	164	14.4192295414357	241	0
18	Fz-Cz	392964	393031	67	30.8598848716832	28.2792151539752	109.182361819471	1.34514448402434	168.670781219877	8.32468570653247	169	12.2047559922417	168	0
18	Fz-Cz	393288	393368	80	36.2752544751335	27.3618443351553	158.353001271036	1.92417624552385	177.840522695167	10.1864097856079	129	11.8274372941569	128	0
18	Fz-Cz	396503	396549	46	31.7249053377803	20.5693802213573	116.121723776676	2.80981132645875	174.711818668476	1.77795657642113	160	15.4795500944415	199	0
18	Fz-Cz	396813	396886	73	36.1523763735776	22.9099219033676	123.091632754253	2.69206172740149	174.711818668476	6.86575509859818	128	9.97485861960753	127	0
18	Fz-Cz	397365	397406	41	42.1549418909313	24.7996029783509	174.711818668476	3.07458398748881	174.711818668476	2.7774020277921	185	21.3779639309952	223	0
18	Fz-Cz	408198	408261	63	42.0839329992334	20.7146933406054	156.578080520365	4.12739110793904	166.293331574449	7.84395548414385	165	18.3970168334093	164	0
18	Fz-Cz	415387	415448	61	27.9386347587299	22.6082200934541	96.5147249332228	1.7069299610578	162.157311283468	3.9636029896185	166	13.3881166458797	208	0
18	Fz-Cz	415711	415864	153	34.0072708659169	19.9372518239022	154.742183350369	3.00201950042859	162.157311283468	4.82990848548675	182	11.8592225654304	213	0
18	Fz-Cz	420211	420259	48	39.1127202302653	20.3550368696725	126.11399552755	3.69225983778241	159.516225812489	8.79209103799045	176	18.7645170958267	175	0
18	Fz-Cz	426433	426496	63	34.1311365805538	19.8865888418227	117.906250183371	2.94564843274107	144.855106504197	7.43825454346933	190	18.4682320152663	189	0
18	Fz-Cz	435626	435680	54	27.3465023380217	21.7987462815796	111.512578042964	1.82356412708338	165.842393915325	1.55245589202059	148	13.5355594076009	194	0
18	Fz-Cz	436102	436339	237	29.7182208217687	24.6041587168661	131.88419893881	1.52093170675679	165.842393915325	5.34596898379941	117	13.274403839181	234	0
18	Fz-Cz	436601	436642	41	28.791259972911	24.9065549716351	94.2351989006443	1.47665512197339	168.413815567586	5.64094155138703	176	14.7613653829317	175	0
18	Fz-Cz	436869	436938	69	31.7128043930509	22.8947192721182	117.134354328654	2.15330708373719	154.173315209996	6.17571066796624	90	6.74483612046177	114	0
18	Fz-Cz	441158	441212	54	37.6564360914056	16.4957383790144	133.253343596191	5.21116601998712	133.253343596191	1.7422063526533	135	22.6563534914931	205	0
18	Fz-Cz	445791	445852	61	32.8592604757882	15.186250708463	116.42341533773	4.68181705612339	129.681834781861	9.79057910663366	178	10.7808671760162	177	0
18	Fz-Cz	447730	447776	46	25.3993610241511	16.4639902010154	81.6940144262982	2.37999138166332	138.414269284148	1.00853329174108	111	14.605479656188	203	0
18	Fz-Cz	453212	453262	50	25.1232232407812	16.4089502914437	82.6638070993255	2.34417006709684	142.117730627231	6.10478985252343	146	7.84820066083884	174	0
18	Fz-Cz	457449	457499	50	29.1565819069549	15.96085164651	90.0629691852218	3.53189595730937	110.481738061166	7.92126687598259	115	11.1136546503981	157	0
18	Fz-Cz	458311	458374	63	26.0749910513293	18.591798450809	89.6958854515849	2.04510519417763	140.597483944899	5.85849394403544	165	13.0344666331781	164	0
18	Fz-Cz	464624	464668	44	30.3921312386883	20.3923223968289	112.291729787339	2.22120649465117	148.428302800697	5.76575267614501	171	14.623240554584	182	0
18	Fz-Cz	474762	474826	64	36.355251952757	22.5941542229744	142.329762937944	2.65613591266774	152.722034951747	11.8116396352662	144	12.9238983339322	149	0
18	Fz-Cz	475007	475055	48	31.9967620451719	22.9058203535297	117.409870592812	2.05620903834854	152.722034951747	2.94626609890686	178	15.6553311876282	227	0
18	Fz-Cz	479287	479340	53	29.8994298848098	14.3381840356109	104.496938770811	4.34848037030881	124.208495436966	7.68128037708711	97	9.30320940276359	96	0
18	Fz-Cz	485285	485348	63	30.5478608170639	22.0911556290041	119.494171374168	1.96914238742478	153.555628906326	3.52500345279065	172	15.5289626616284	195	0
18	Fz-Cz	485788	485843	55	31.276825617396	23.7579302006395	123.415573987484	1.77137216576712	166.441478485836	9.0943954255352	191	13.0160846792639	190	0
18	Fz-Cz	494690	494738	48	39.4627852645378	19.0814533388386	160.682543671598	4.27713116962397	160.682543671598	3.99841194181454	110	19.7990723025014	200	0
18	Fz-Cz	499979	500034	55	40.314223189283	16.9058237066588	155.061748867228	5.68648528911166	155.061748867228	4.26941118614205	171	19.2512397435773	205	0
18	Fz-Cz	505424	505478	54	35.068759658376	20.4365576719759	127.496475914072	2.94459330931038	152.618706024521	6.93761647491281	170	15.4967014262022	169	0
18	Fz-Cz	520988	521028	40	36.9524480224372	18.4836954090763	128.717273978195	4.06768314091407	152.831662306676	3.07445545218133	128	19.3053035731704	208	0
18	Fz-Cz	522012	522063	51	37.7875583168044	21.3349388236633	147.914181420181	3.46810099575726	169.143057423278	12.1183197002797	127	14.4910090600959	167	0
18	Fz-Cz	522682	522762	80	35.6677712880036	19.2781890137092	156.420695231275	3.70411688640058	169.143057423278	4.70730732828656	153	14.9911814053579	236	0
18	Fz-Cz	526363	526542	179	33.4851790326797	21.724452196164	129.462270174014	2.37578744201573	175.573378695711	8.54082522650822	121	9.28925790332351	149	0
18	Fz-Cz	527616	527669	53	36.3111128260884	23.9580478811053	139.685997838035	2.40521689092199	165.643200089	6.90694110006637	156	6.84323556885536	155	0
18	Fz-Cz	527772	527823	51	38.2223066690404	23.7901102930167	133.482600683532	2.69135302747078	165.643200089	3.77768828908831	159	15.1780015024456	221	0
18	Fz-Cz	528356	528401	45	25.2657967849038	23.0742561079375	85.8373414255153	1.31752009078797	165.643200089	4.76247009051585	160	14.9427336657961	159	0
18	Fz-Cz	532464	532513	49	40.4246319567994	28.5002536149005	149.346752312073	2.01184584225367	170.523319967985	6.13335583655413	187	19.9347423940142	186	0
18	Fz-Cz	537525	537575	50	38.6377446975352	22.798751901293	142.974438202537	2.98066170872545	171.102913524033	12.3809974779071	126	13.3705097289671	166	0
18	Fz-Cz	537666	537719	53	34.6690600550842	22.0731098551779	131.047493367121	2.60777935865411	171.102913524033	11.2614454175377	110	12.7990157605972	143	0
19	Cz-Pz	2763	2865	102	31.1382382946199	21.628091401326	119.071411415849	2.27867368884575	156.667128431297	6.0799681700815	179	14.2286021424244	178	0
19	Cz-Pz	2965	3007	42	28.521825513835	22.9326529569895	100.26646912446	1.73675415971704	156.667128431297	4.22326369736035	195	14.2939876716318	212	0
19	Cz-Pz	3257	3309	52	39.5226089476686	24.3460819183842	150.875064264276	2.83955773639488	156.667128431297	10.733320995809	120	13.9982020273372	161	0
19	Cz-Pz	3402	3452	50	23.976049505242	26.33889650706	76.2077035149645	0.90510325175532	178.537159568661	3.45944313514721	170	11.0004071618191	204	0
19	Cz-Pz	4052	4092	40	35.6214267756268	26.9136203159075	133.554990414353	1.93484725078693	178.680300259663	6.76977615617103	191	18.5505770516295	190	0
19	Cz-Pz	4548	4673	125	37.3531500928679	23.0050148057246	162.550206178091	2.71582805817317	178.680300259663	7.43993400147188	184	20.62937478801	183	0
19	Cz-Pz	9712	9763	51	33.2339555016089	20.3529737040907	129.725279768538	2.66629577860723	165.625274956751	1.9016265307495	123	17.7907272281964	194	0
19	Cz-Pz	14194	14267	73	41.034246433437	22.2001438644299	142.380953267008	3.67255873445097	160.517409170035	8.31961421451444	105	13.0425777448346	126	0
19	Cz-Pz	14919	15000	81	36.0082110014836	23.7538018665476	131.419544446664	2.59540951643599	160.517409170035	9.59438146559292	109	9.8093476377038	114	0
19	Cz-Pz	15445	15486	41	38.635228635035	19.2324032886333	138.544164912638	4.51963232297071	152.539079680905	3.77106354284568	164	20.0549492984183	210	0
19	Cz-Pz	19222	19269	47	33.3053973984302	22.0798054459118	115.25338782958	2.27530046382021	161.826255235656	10.1034987758305	144	11.009214258433	183	0
19	Cz-Pz	25690	25737	47	24.6572270256017	19.4766620316217	76.5027402353852	1.60272647590418	163.52586274683	6.00083830543105	164	12.7373086741981	163	0
19	Cz-Pz	30130	30178	48	32.4625002849049	26.0322649801332	123.677682231141	1.71672774699401	159.354396964196	3.59175361175811	139	18.6641638493552	215	0
19	Cz-Pz	30835	30965	130	39.8538685433018	22.1901628234141	159.077614887802	3.32076066379143	159.354396964196	2.19795713039816	135	17.847438012531	199	0
19	Cz-Pz	34053	34111	58	30.0833582369982	22.4550555070599	105.446782840255	1.94135235541015	180.459652663925	3.4946552704841	204	18.6334056696	204	0
19	Cz-Pz	34406	34448	42	34.356149143592	25.0027826149458	118.005072913188	1.96533685108357	180.459652663925	0.919759861912581	164	15.6955827072324	205	0
19	Cz-Pz	34600	34650	50	30.6926887590381	27.1245019123216	124.351640557755	1.31473620172592	184.622402064804	4.76656527266631	189	16.6172113452485	188	0
19	Cz-Pz	34938	34992	54	29.1614939405674	29.3115039919785	105.739852521017	1.00289966764191	197.614924085608	5.28759241011777	228	14.2157102899418	221	0
19	Cz-Pz	36299	36365	66	28.9650245245912	22.5065255938788	101.915664038414	1.65626905464974	189.681817067763	4.9190852060771	166	13.2805609041046	165	0
19	Cz-Pz	39940	39991	51	35.3412636969894	22.8428106843722	118.356815952989	2.39668039178812	158.556947728487	10.5800309798765	170	11.4192223498167	169	0
19	Cz-Pz	40910	40963	53	23.3533457089827	25.2588524599183	78.2619633083669	0.904819585174421	158.556947728487	3.58641654641924	61	11.2731183418477	93	0
19	Cz-Pz	41129	41189	60	26.2153063317861	24.019287683433	106.318260458351	1.22725054331434	158.556947728487	7.25175943568082	148	12.3699522739527	176	0
19	Cz-Pz	41380	41447	67	32.7084898930417	22.5002809002008	115.917333706627	2.14275288564658	158.556947728487	4.41497633341182	135	17.1392050394182	153	0
19	Cz-Pz	45166	45210	44	36.4668237422367	21.8217357657122	136.952627595711	2.83944755403596	167.572707450619	3.81304192721966	126	18.9079845550721	197	0
19	Cz-Pz	45624	45665	41	29.0176267709947	24.3615006034191	90.5014638681155	1.50548243598995	167.572707450619	2.02209526909471	172	17.2278471103192	193	0
19	Cz-Pz	46240	46292	52	34.5664527517182	21.6047939779773	136.820994350138	2.60473839651716	151.664732692897	4.30027317607137	175	18.1983299823449	202	0
19	Cz-Pz	51582	51631	49	31.3702561576888	24.5440941236126	108.171959357539	1.67745987607441	178.329680229202	2.66188947562002	173	17.3158803916073	231	0
19	Cz-Pz	52189	52259	70	32.1011732171227	20.0917858089483	119.681428534016	2.6504424614439	169.558736183404	7.00006167190273	165	15.8364979245077	164	0
19	Cz-Pz	57644	57732	88	34.6968432757377	22.1406362633993	126.875101303292	2.53715786171067	152.556947750466	5.05530209369153	137	15.8121785529873	212	0
19	Cz-Pz	57895	57944	49	33.2110213307976	22.4206099245775	110.13803638061	2.34661037038721	143.324957446022	4.17826806126053	143	18.8305913581486	199	0
19	Cz-Pz	59425	59486	61	31.3980424036611	20.4802214794132	119.883069527116	2.41989339756729	133.481773673663	10.5158936458286	98	9.10080817630672	97	0
19	Cz-Pz	59782	59835	53	29.2184179058506	19.45099046947	107.981301575143	2.3786605254614	133.481773673663	2.20227978480967	162	16.7649634894519	220	0
19	Cz-Pz	63706	63784	78	34.6338054749019	17.5652897997692	127.076037938351	3.88767353316856	151.607692046375	7.36156772090532	168	7.35266877003935	167	0
19	Cz-Pz	83015	83099	84	38.4711825361682	21.3111254679519	130.957074887011	3.25880444468553	153.957228081152	8.32495659265197	139	11.6307487353735	151	0
19	Cz-Pz	88730	88794	64	33.360888060215	22.6026414047732	119.981893908097	2.29082031031988	156.241579848356	5.96425208140967	142	14.6826238049539	141	0
19	Cz-Pz	89383	89439	56	36.9426840483776	21.1562919718656	141.308066124242	3.20940653256279	156.241579848356	7.8854445795767	169	8.04844373760166	168	0
19	Cz-Pz	93105	93163	58	36.8362376656281	22.0329968829465	144.758043986279	3.20625552946328	157.420293034991	5.1950116333825	176	20.5842304053242	206	0
19	Cz-Pz	93670	93714	44	42.4721926981715	24.0745208522545	155.96321620556	3.4084907492696	164.372264964317	8.13970248478466	111	12.3991462701018	141	0
19	Cz-Pz	93886	93935	49	34.17900947839	23.5186680705961	135.510140428983	2.39961893975311	164.372264964317	10.1718887505051	177	17.9509809661148	176	0
19	Cz-Pz	94097	94145	48	30.5892314467219	22.3412271928076	118.919511499072	2.2184228267482	164.372264964317	7.3512625450156	121	9.52383715753162	143	0
19	Cz-Pz	101929	102013	84	33.2331885992557	19.0220801378052	124.151441964487	3.48178368142019	175.406867336271	4.20687780674836	195	16.5631416068103	212	0
19	Cz-Pz	102110	102168	58	42.7806825084531	20.4730600065607	175.406867336271	5.19567341609393	175.406867336271	10.3692053144371	170	13.0123156006018	169	0
19	Cz-Pz	103089	103134	45	43.2523973618202	23.1398427373014	172.750934432267	3.77097855543533	175.406867336271	3.86183885930069	136	23.1374320502203	198	0
19	Cz-Pz	107298	107470	172	35.2248554987755	22.4881885614531	164.384971009033	2.60001206616825	165.967307532976	6.43510270975357	104	15.5013879096148	197	0
19	Cz-Pz	107918	107976	58	37.9883475646276	27.6435816287286	132.691658029236	2.0365769925489	196.041432687643	5.06528673815851	167	21.1600795641689	194	0
19	Cz-Pz	108512	108555	43	33.7935185482272	25.286106907109	128.154861219805	1.8570448792506	196.041432687643	12.5807347197888	148	14.8535567799204	179	0
19	Cz-Pz	113003	113053	50	36.0388386907907	24.5544539806178	126.789439004398	2.27216466800756	174.005324981407	4.62698770725632	164	13.7244389991802	204	0
19	Cz-Pz	113599	113660	61	27.6659146979169	27.3038353242825	110.127084480431	1.07954415537966	174.005324981407	3.75496445033774	169	13.5659962339612	179	0
19	Cz-Pz	113749	113804	55	38.4086533859929	26.439912246876	127.946517155359	2.16727890065982	174.005324981407	13.7052908056075	133	14.6289482306578	168	0
19	Cz-Pz	118403	118493	90	42.4921449655277	22.2884628545909	192.56560646799	3.63460377175054	192.56560646799	2.82718833383094	166	14.9512409304846	204	0
19	Cz-Pz	129615	129657	42	42.6191495857945	19.7131002510795	132.274358857741	4.67411828084159	161.845290896829	11.4832906988271	168	20.1742629646196	167	0
19	Cz-Pz	134630	134827	197	33.6818288226498	17.6973674784411	167.299704370221	3.62221304971546	167.299704370221	7.22834320294654	130	10.032064335936	142	0
19	Cz-Pz	135868	135936	68	33.4505533227344	21.8994879510476	129.855225398627	2.33312867496147	156.491898737176	8.72812574907033	148	15.7283181379411	167	0
19	Cz-Pz	140699	140865	166	31.0909558049545	23.5046309912165	151.968795109712	1.74969065395252	176.367527945531	9.65730983743041	154	13.7720910451963	164	0
19	Cz-Pz	145683	145724	41	33.9153327291879	23.139487546718	120.941552767371	2.19623022878251	167.406652986051	4.2528427777819	165	16.9838127754682	210	0
19	Cz-Pz	146214	146256	42	32.6774216180939	25.8139036784238	105.164588146047	1.62781987231908	167.406652986051	9.0540737261842	174	9.69033745869031	173	0
19	Cz-Pz	151154	151204	50	34.6281329774666	23.4067569508495	137.334834882223	2.22701391569299	145.248102314378	3.11816644714728	165	19.1790759169103	211	0
19	Cz-Pz	152098	152156	58	29.2984464637922	20.6225297462454	91.915993023964	2.17165624280083	145.248102314378	6.33150117797732	165	15.8332409523333	176	0
19	Cz-Pz	152480	152532	52	27.4665228171122	18.940312508558	97.6877664634572	2.19594170712675	145.248102314378	1.91678770035415	217	13.6932196711928	270	0
19	Cz-Pz	157366	157429	63	29.6783879355842	17.2288734911228	97.7094631584449	2.96733685429114	151.911955300306	5.48546745933274	142	17.1065910378594	155	0
19	Cz-Pz	163010	163054	44	33.5562503113947	19.2031477609843	126.37956295365	3.0535286795064	148.07047111167	8.43941861236244	158	8.68414846618744	157	0
19	Cz-Pz	167177	167226	49	26.5114349193021	22.5679641185906	90.7212259385935	1.38000831576718	164.697851989647	3.25596166880999	127	14.7183832902451	198	0
19	Cz-Pz	172243	172283	40	31.6770424083142	18.8441430218755	123.535451666248	3.28314377569508	161.001704763054	2.31156925328451	144	14.9572671528263	192	0
19	Cz-Pz	172813	172879	66	34.488842387542	22.6160600028168	117.641674456413	2.47732997019362	163.698508952541	3.25469718617937	148	20.0591172571146	193	0
19	Cz-Pz	173027	173080	53	32.2677028891213	24.280483849907	126.45299191677	1.87475825152322	163.698508952541	10.8992615422861	172	10.9899875784751	171	0
19	Cz-Pz	173752	173797	45	26.7902112547911	25.3874690029806	93.9453960789712	1.23045337304314	181.269456266682	3.1591105074851	158	10.9735496214882	199	0
19	Cz-Pz	174089	174133	44	43.0417654642288	22.1708914416935	178.718149677714	3.8101638093568	181.269456266682	9.32696908755178	241	16.909649203269	221	0
19	Cz-Pz	177771	177828	57	33.10104215383	18.7839237515876	113.163883230114	3.10535103877829	143.014515359009	5.71609029170886	114	7.92544870329028	136	0
19	Cz-Pz	183127	183183	56	32.7375361855908	24.6494550480049	107.545080317436	1.89446319030177	174.163935403043	5.55630507338209	134	18.7238885784204	154	0
19	Cz-Pz	183434	183499	65	37.0694972366128	24.7132243342838	149.339084064586	2.35824260556182	174.163935403043	3.41871756423153	133	15.3183186083073	217	0
19	Cz-Pz	183770	183897	127	28.3390657167172	22.9667872823716	126.481905721276	1.66904874665794	174.163935403043	2.1150261222338	142	12.8987209375758	193	0
19	Cz-Pz	187639	187705	66	28.9395979071988	21.0821325638475	99.7289648983327	1.88432541445738	173.114733222993	9.17162883757163	160	9.19921467368782	159	0
19	Cz-Pz	193492	193535	43	27.8311794107732	25.4471823973842	88.5367864172252	1.31294684885621	158.509528231156	4.86559809862356	161	14.6602835892146	211	0
19	Cz-Pz	194009	194075	66	30.9201875958829	25.5333046436147	117.103507736158	1.58415117987442	158.509528231156	4.50443086421303	115	5.64650979005714	122	0
19	Cz-Pz	194295	194393	98	38.8069330566291	23.7327780142429	152.869507691468	2.76635977416719	157.090297212063	7.98935000162539	170	22.1566317064937	179	0
19	Cz-Pz	198255	198322	67	36.6446790661039	19.3235607467262	140.581463021451	3.5962305948066	189.243767308861	7.62240592649926	130	8.8568393342079	157	0
19	Cz-Pz	202827	202873	46	24.8654121554679	17.5760691489805	83.8203495481141	2.14020753809278	136.190189409204	1.73172123577988	145	12.3571540025228	208	0
19	Cz-Pz	203839	204037	198	33.8315539651152	24.6592290975489	156.974251434363	2.02756316412921	169.786776203118	9.56633452722898	168	14.134126663728	167	0
19	Cz-Pz	204210	204323	113	29.900931779865	25.8297250986803	122.514441954052	1.51503317957387	169.786776203118	6.28333834969436	61	14.010319399749	96	0
19	Cz-Pz	204671	204737	66	35.2590982283123	23.8900503005115	126.222853666169	2.58357850192826	169.786776203118	9.70755891323319	165	16.7290634667083	164	0
19	Cz-Pz	208703	208753	50	30.0044129565212	23.7069803895185	101.455147525725	1.6018350316293	156.883568617939	3.85024323294843	163	13.3878165546449	196	0
19	Cz-Pz	210221	210465	244	29.2206478414995	23.335571223602	129.337038455949	1.56798826486378	159.325626887174	4.27894336577012	160	12.3274192035088	216	0
19	Cz-Pz	214373	214417	44	35.0480760732022	17.3749360729619	126.111605297185	4.06894608083942	138.074790306317	6.95830076540684	64	12.9817062343792	118	0
19	Cz-Pz	215532	215574	42	33.2966003869981	16.3633518352286	115.519286925137	4.14052347218785	128.18595244052	3.59494546165782	170	18.1747184494609	215	0
19	Cz-Pz	235899	235966	67	42.8895470577821	19.0144565986853	177.100273991713	5.08785918071043	177.100273991713	15.026515764554	175	15.0738125264638	174	0
19	Cz-Pz	245525	245584	59	35.8324880592074	22.2446397927569	143.928431801504	2.76684455802164	163.731478944444	5.37017571407139	189	17.639024011087	188	0
19	Cz-Pz	245723	245792	69	36.649389496422	24.0839050357317	115.858674983599	2.40599299621243	172.225047836335	3.00974813424256	127	17.652582236678	231	0
19	Cz-Pz	250158	250201	43	22.9970268579838	18.2563489958343	71.3171680978727	1.58677564594495	153.539707294148	3.25628190881674	192	12.5923890248534	215	0
19	Cz-Pz	260509	260564	55	40.0872938629301	17.0235785794292	133.773213394807	5.54513035418663	137.069521795974	10.1429199538459	164	12.7928593494123	163	0
19	Cz-Pz	261908	262189	281	30.4966491333608	24.6754811200281	156.109927522062	1.59535185060132	167.357821717001	4.16923221244495	155	10.6560838790444	233	0
19	Cz-Pz	262830	262885	55	38.8359615801702	22.1923456858235	138.751529721789	3.58522712401875	167.357821717001	5.90133874271051	151	20.3761115564659	150	0
19	Cz-Pz	266662	266706	44	32.4752038265914	21.8571213631347	102.474361719399	2.77847098852605	168.858927858738	3.43093618179526	156	18.4566004027342	197	0
19	Cz-Pz	267182	267261	79	44.1860239273666	24.2371608200637	168.858927858738	3.56544537517344	169.383556183531	6.86624987505684	190	22.3017659457557	189	0
19	Cz-Pz	267403	267483	80	35.3529327522727	25.6596453194456	126.350303847163	2.10516111533535	169.383556183531	7.17909350436521	243	16.8938801662163	239	0
19	Cz-Pz	272610	272663	53	37.9627075148133	20.6156249239063	129.052805750569	3.39094971426857	138.144399558128	6.09974203088423	166	19.4477208601514	171	0
19	Cz-Pz	307660	307710	50	32.2901217676046	18.3694519202898	113.587399678857	3.08991809862347	176.734246758579	7.89688983909164	68	13.8210055068072	96	0
19	Cz-Pz	312795	312842	47	29.0332503826321	17.9561925444551	95.653957545065	2.99907815364666	160.536636904732	12.3959412732488	61	14.3897449797582	92	0
19	Cz-Pz	312921	312986	65	39.1721215279139	18.331071308682	146.856849164971	4.7423632392198	160.536636904732	8.16120901760937	135	7.64549170889431	134	0
19	Cz-Pz	314241	314306	65	34.7752005519735	15.9010061321056	135.1125998155	4.78288651607766	138.902139409615	2.89343547036358	156	19.7390584083678	206	0
19	Cz-Pz	318394	318443	49	28.972189191109	18.9162881998383	97.0819991425868	2.34579891370331	142.623864906743	7.68699919256789	175	14.727891472118	174	0
19	Cz-Pz	328859	328926	67	32.6388529949172	18.0819817684141	117.538795511324	3.42651734023076	175.44792669787	10.1783809986814	176	10.3880382650892	175	0
19	Cz-Pz	329101	329161	60	28.9392847779083	19.5927906556469	102.139273389354	2.32702583143418	175.44792669787	7.15399819325992	177	7.97769209825943	176	0
19	Cz-Pz	356150	356215	65	34.9076806293443	21.4090008554321	130.515999597694	2.65857666710054	166.325815151464	10.1589835663291	128	16.020712785332	144	0
19	Cz-Pz	366229	366271	42	31.8181205328612	23.0895602222803	120.389628851546	2.11885380101326	183.599178703499	4.08298304218673	183	17.2842986940929	223	0
19	Cz-Pz	367116	367188	72	44.6494622766934	20.627721743484	170.106650248824	4.83164843191394	183.599178703499	10.0683679307975	131	15.0075814695639	130	0
19	Cz-Pz	372241	372291	50	35.6313513266757	27.4827643825723	126.688969215842	1.82766048473918	191.593296414022	7.58593606789825	214	14.2492888881836	211	0
19	Cz-Pz	372424	372576	152	34.9555525695038	25.7478571764782	141.50365419632	1.96191844423886	191.593296414022	8.95707721773444	165	12.4106134510579	164	0
19	Cz-Pz	372681	372773	92	33.6379874608733	25.6032970032037	148.963623231932	1.91832918776081	191.593296414022	8.79299668976658	86	12.5895155611188	134	0
19	Cz-Pz	375999	376062	63	28.1932271426891	22.218358610358	109.495025394067	1.61014740480015	171.435798995486	3.53661223871688	140	15.3474599741813	193	0
19	Cz-Pz	382197	382261	64	34.6312027656351	24.4506330686099	126.893570049429	2.00611088261684	153.298756068393	9.47339069013655	154	13.0933415360177	153	0
19	Cz-Pz	386581	386654	73	37.6000987809049	18.8529136633528	134.164638298736	3.97759915219609	164.976318227299	4.12805219245657	153	18.449970910072	206	0
19	Cz-Pz	387758	387811	53	30.4513654663211	21.2922462835161	122.344838113564	2.0976982930238	156.707482556153	2.98461934660786	159	15.9653011747711	202	0
19	Cz-Pz	388045	388110	65	28.014208841773	21.0800894959329	93.9240691492087	1.82100042085126	150.997455807418	6.2805342376361	166	12.3605809750627	165	0
19	Cz-Pz	392122	392171	49	34.7683922193895	23.8939577589087	122.269579282097	2.51203240412166	163.683549675307	2.92929126622236	155	18.526900526629	196	0
19	Cz-Pz	392390	392599	209	34.3694688925955	26.1051896579036	152.21034623967	1.87829838242571	167.859190114241	5.16628759567699	165	14.2749955839787	241	0
19	Cz-Pz	392964	393031	67	30.9449986879537	28.138761376083	108.203776356445	1.35744982196719	167.859190114241	8.08129792225299	170	11.9601113110964	169	0
19	Cz-Pz	393288	393368	80	35.9622538276655	27.2301045467478	159.269901990548	1.90381250792741	175.901498987389	10.290519217619	129	11.6236088921018	128	0
19	Cz-Pz	396503	396549	46	32.2178234620386	20.6913644359486	117.987760042825	3.70902134119417	174.570284834507	1.19742702325247	158	15.5227829430381	200	0
19	Cz-Pz	396813	397006	193	38.5348859410603	21.3120822152994	166.962530889155	3.61445814608106	174.570284834507	8.22710928954093	138	7.97387685309385	137	0
19	Cz-Pz	397365	397406	41	42.1231333051805	24.9916545898418	174.336039154343	3.42112080416377	174.570284834507	2.57331607699738	183	21.4293066212851	222	0
19	Cz-Pz	403143	403183	40	26.3321607712666	15.4695445260442	87.8366085028556	2.89746329046338	137.640389920816	1.31838374516835	156	13.750770872022	202	0
19	Cz-Pz	407305	407356	51	30.3320181047686	24.5269332566299	103.411140401591	1.73700555149955	167.482273773712	3.45250113628145	146	16.1793569242352	201	0
19	Cz-Pz	407779	407833	54	41.7871947327216	22.3491296067581	160.362426901455	3.9148983504376	167.482273773712	4.00560363811628	186	20.5029822104941	214	0
19	Cz-Pz	408198	408261	63	41.6085580750511	20.8007431728977	155.612401369159	4.54258604083865	167.482273773712	7.79566049609146	165	18.3378961143129	164	0
19	Cz-Pz	414074	414121	47	38.4408236518713	18.0758011313594	139.022447373579	4.52262167492117	144.505260754612	5.28360185501214	179	18.5066321108314	186	0
19	Cz-Pz	415387	415448	61	27.9176522086531	22.6128815592983	98.3347161643736	1.6367096988454	164.178463618614	4.03479874241625	152	13.3220156808654	208	0
19	Cz-Pz	415789	415864	75	37.4311483857046	20.6812985119386	155.207304670055	3.36424414204337	164.178463618614	7.99820957524954	186	16.632462231152	185	0
19	Cz-Pz	426433	426496	63	34.0132839745728	19.8136987511484	117.63011082416	2.94690420620117	142.926472178529	7.01644546480425	190	18.3708406747597	189	0
19	Cz-Pz	436103	436283	180	30.6148665304979	24.8559218076696	134.645478123847	1.56278144959322	168.382331739019	5.62992044182911	170	14.1501424583691	243	0
19	Cz-Pz	436416	436458	42	27.8874022566317	25.7762075915456	91.4293517207307	1.249434275785	169.536880780948	3.39314892707868	159	14.5044069056772	213	0
19	Cz-Pz	436871	436938	67	31.9177147653788	22.8730570433869	113.632280355439	2.14556587535379	156.118658706223	6.33261737612966	91	7.05296992381797	114	0
19	Cz-Pz	441159	441280	121	34.6147159350266	15.7509051815131	133.05734970644	4.82959273601019	133.05734970644	3.32285789254732	123	16.830648794703	200	0
19	Cz-Pz	445791	445852	61	32.3614633024561	15.1449643354534	117.72709215828	5.08650723608411	128.304575260815	9.78583263373235	179	10.8244827893807	178	0
19	Cz-Pz	446005	446047	42	36.0270819928255	16.1029096648032	128.304575260815	5.5445355751131	128.304575260815	3.02161291861047	131	19.8686503061025	215	0
19	Cz-Pz	447730	447776	46	25.4418152537766	16.2648651711864	84.4112468782498	2.44678187252486	138.051828168989	1.11690812156358	109	14.6721669300662	203	0
19	Cz-Pz	452067	452129	62	30.9251593027801	19.1825125786003	102.073492923528	2.78454231365638	152.806498658343	5.68535871373867	133	9.99326606498712	137	0
19	Cz-Pz	452904	452950	46	37.2369107883598	18.498979858775	143.549029799306	4.40412341525047	143.549029799306	3.13774574129716	149	18.6199512161172	212	0
19	Cz-Pz	453209	453262	53	24.0880434781209	16.4416511020037	82.4334409430699	2.3832379624891	143.549029799306	5.73601837423057	147	7.13725537613865	174	0
19	Cz-Pz	457449	457509	60	28.4853591419901	15.7730866634073	90.961876752019	3.37868590041639	110.986967447817	3.30909205610669	161	11.7084698531313	266	0
19	Cz-Pz	458311	458359	48	24.3418943776788	18.4615866615525	81.4887459587052	1.81742622699828	139.815750540182	4.41396556832327	164	13.7597768047974	163	0
19	Cz-Pz	474762	474826	64	35.4978211502269	22.5883616202709	137.705245151983	2.53697526277575	149.541992967213	11.6036614024105	141	12.8993870929036	149	0
19	Cz-Pz	475007	475055	48	32.3949094280315	22.8341548198988	120.635199276216	2.11329612977813	149.541992967213	3.06699059479567	178	15.7794163899815	228	0
19	Cz-Pz	486143	486187	44	35.3797045256769	23.573052684597	113.465814865897	2.25256197953235	168.994121371455	8.25071149777054	177	17.3491593921683	176	0
19	Cz-Pz	494690	494737	47	40.0235309087698	19.0309801831316	161.940840828402	4.42291390435906	161.940840828402	3.75118035897919	140	19.8157236466406	200	0
19	Cz-Pz	499979	500034	55	40.7463910520449	16.9018886297963	156.470563839742	5.81176207139417	156.470563839742	4.02063270154065	170	19.274661223212	205	0
19	Cz-Pz	504629	504682	53	33.1193983011036	16.4633994002874	124.282382976109	4.04693144695865	148.331574868366	2.62342310864159	112	9.28952282699068	300	0
19	Cz-Pz	522012	522063	51	38.1368420507833	21.2231345016854	148.947508447591	3.4991217839586	170.793990291734	12.3011203251485	127	14.5762824224574	167	0
19	Cz-Pz	522682	522762	80	35.6951645055416	19.2565986463299	158.793306367691	3.72675871534529	170.793990291734	4.83166908305352	151	15.165036616723	236	0
19	Cz-Pz	526351	526541	190	33.072938574874	21.7083731704364	131.323172420347	2.43340621677619	177.768475902689	8.27389134540769	120	9.25088523220519	150	0
19	Cz-Pz	526894	526956	62	33.7645693090747	25.4004402325526	131.507182296665	2.07302987444691	177.768475902689	9.19816199545219	156	9.38058016092846	155	0
19	Cz-Pz	527615	527669	54	36.0046503435231	23.9843550131187	137.279822277051	2.4326127368787	162.506603957966	6.95764394737553	156	6.96590935649562	155	0
19	Cz-Pz	527771	527823	52	37.5413066723101	23.8663426533519	131.604061031665	2.66282563742244	162.506603957966	3.98520058152736	159	14.8648639416536	224	0
19	Cz-Pz	532390	532513	123	34.511642279274	28.3728533342551	154.420307473421	1.54975311310486	171.194689477625	8.42769086032265	188	15.2519994618079	187	0
19	Cz-Pz	532822	532865	43	43.345679084564	27.5413372414713	150.526939744735	2.62493496604599	171.194689477625	9.4641803312152	190	17.9882110459582	189	0
19	Cz-Pz	533152	533198	46	35.7942744365811	25.4213632574936	131.600555790602	2.20990860920327	163.717862458833	6.51481634395787	161	15.7976903919136	209	0
19	Cz-Pz	537525	537575	50	38.5182013436847	22.84133650544	141.728963762338	2.84373402281181	172.321976165651	12.2435952728947	127	13.3280007621228	166	0
19	Cz-Pz	549885	549954	69	32.3405580137907	17.7063737986564	126.637771341276	3.33607466034807	126.637771341276	9.06028002838504	147	10.1924285577473	146	0
19	Cz-Pz	555665	555710	45	37.0825155118244	17.8406385503045	133.809555689197	4.32033660767168	142.737302373378	6.22244286165872	176	15.8811571574968	194	0
19	Cz-Pz	565212	565263	51	25.7228034822298	12.0343756356174	89.326064784946	4.56866667059867	94.118659472385	7.64734231476712	183	13.5848792716616	182	0
20	Fp1-Fz	167465	167567	102	11.0381359330044	2.59119956159291	68.579673461011	18.1463696336715	68.579673461011	2.64145817221313	67	2.72113357270228	84	0
21	Fp2-Fz	200522	200586	64	7.81734963711244	4.7570501384075	28.8254560191156	2.70049647954097	30.1616651137719	0.601233466312342	164	4.27584190398376	213	0
21	Fp2-Fz	232010	232067	57	8.20793487584838	5.19222807352775	26.5224926208366	2.49896562363958	31.5707117857938	1.6330563985648	123	1.77181777048903	140	0
21	Fp2-Fz	252838	252899	61	7.89722642371288	4.80951312996035	25.4568738935638	2.69616800423638	31.052834099642	1.77884926647426	116	1.94421332009735	132	0
23	F3-Fz	167481	167549	68	12.7281459424797	2.9842321383023	67.4984489021612	18.1913565627639	67.4984489021612	3.01853643109669	101	7.01742776080436	100	0
25	F4-Fz	167463	167549	86	10.9828453397114	2.18111123824879	67.3701921364548	25.355612434708	67.3701921364548	2.90946604193249	70	3.10443679096769	82	0
25	F4-Fz	234582	234657	75	10.9066695011898	2.11603891127649	58.0857843882154	26.5666630266283	58.0857843882154	2.31168687145127	88	2.0895113731511	87	0
26	T3-C3	97713	97785	72	7.08137543669341	3.48943993250042	32.2230056762293	4.33906051327507	32.2230056762293	0.856222237963542	117	0.856543025648822	116	1
26	T3-C3	98637	98681	44	6.25164399574455	4.26579617694282	20.3936630814283	2.34085839668781	32.2230056762293	1.05263680467141	85	1.84119694028432	110	0
26	T3-C3	99388	99470	82	4.84195675258601	3.37786981268298	21.0748739426936	2.17622595548616	26.3084723371212	0.872944467903061	129	2.59216624979805	128	0
27	C3-Cz	2763	2816	53	37.4297830878371	21.7247013401127	119.836642734453	3.17131099464302	159.307043929614	4.13845155242399	99	20.1438326090182	196	0
27	C3-Cz	3258	3309	51	40.0380093927486	24.4267298145747	154.962781017343	2.7910751258094	159.307043929614	11.0676044376072	120	14.2966664449641	161	0
27	C3-Cz	4548	4613	65	32.2426088931413	24.0344195852392	120.161264504009	1.7996708122423	178.680903448577	7.11449534483948	187	18.921086290549	186	0
27	C3-Cz	9712	9763	51	33.471490189872	20.2366093595806	132.523326301239	2.73573860890274	162.623503349998	2.10322263253323	124	17.914062997639	194	0
27	C3-Cz	14194	14267	73	41.8515569876807	22.1877204955652	143.046070057561	3.80073563743297	157.622029131875	8.46645343637935	105	13.1725826038347	126	0
27	C3-Cz	14919	15001	82	34.9092801144298	23.7933653120188	127.729561528329	2.36112157982118	157.622029131875	9.21405907397422	110	9.39490979749265	114	0
27	C3-Cz	15982	16026	44	25.5530340293279	15.1768471001254	93.6258888742005	2.87086761080585	135.730209091658	3.59033418952567	158	4.07035824011192	169	0
27	C3-Cz	19221	19268	47	33.4433394590333	21.9841300226771	112.459883200857	2.31419902461285	160.970601530476	9.50559891385051	137	11.2248794372449	144	0
27	C3-Cz	29114	29160	46	34.9151487560927	21.1935589232844	121.568137720395	2.71406353528298	167.333724464194	8.88786350442451	167	15.5843764803287	168	0
27	C3-Cz	30835	30965	130	39.8356859487835	22.2203291857433	156.344113673786	3.2139833504676	158.706739673517	2.6248638352458	135	17.7760785711071	199	0
27	C3-Cz	34054	34111	57	30.4259832772182	22.4106559319219	107.535791279641	2.02344526686138	180.804573486668	3.52680377315726	193	18.6377609921747	204	0
27	C3-Cz	34406	34448	42	34.8050313067265	24.891862113926	121.185223915334	2.06164210234057	180.804573486668	0.976627690152352	166	16.1440591392195	208	0
27	C3-Cz	34600	34650	50	30.9505549968829	26.997038388925	125.223435089138	1.37510849524416	182.136593000021	4.97978563007428	189	16.8004828996401	188	0
27	C3-Cz	34828	34873	45	33.804856349661	28.4298483219137	118.917711942471	1.44824773821419	194.288527000343	10.4861033717267	130	12.9799145720305	177	0
27	C3-Cz	35490	35541	51	29.3211604761909	28.1634248046836	106.627531298914	1.10484751472475	186.496698154881	10.3040501508249	101	12.6824548779443	100	0
27	C3-Cz	36299	36365	66	28.9782493829706	22.3630676300183	103.332697155938	1.71198161347662	186.496698154881	4.67168166942599	170	13.1394783579237	169	0
27	C3-Cz	41141	41189	48	26.4254380828983	24.0243755253535	101.243626278005	1.24694298945715	161.318144151696	7.35676286570027	151	13.7856529699646	178	0
27	C3-Cz	41380	41448	68	32.5168674395535	22.5497611349862	113.778877616214	2.09905730792291	161.318144151696	4.37517987742272	135	17.0776960502577	153	0
27	C3-Cz	46240	46292	52	34.0902655284137	21.5462923704683	135.846005035918	2.50331597344244	150.718298675648	4.21812629325928	174	17.8701968783957	202	0
27	C3-Cz	51181	51234	53	39.1955391388906	26.4165500320606	157.889530005122	2.28647993722223	174.506803164398	5.77485022707435	164	6.1561984399241	164	0
27	C3-Cz	51582	51702	120	32.1611036490395	23.7179759192889	135.949188902361	1.99587985604926	174.390962457235	4.76750654224357	175	14.6493318466434	225	0
27	C3-Cz	52189	52259	70	31.4962060252834	20.0797039993154	121.458380381465	3.02012469247584	169.523048881106	6.96211038805011	164	15.4102094577159	163	0
27	C3-Cz	57667	57733	66	33.4464276919173	22.4639371576614	117.506720401149	2.28146430390703	152.050710085834	5.13191622305565	136	15.0071510459464	215	0
27	C3-Cz	57895	57944	49	32.5942677122149	22.3969160818063	108.580357965539	2.21222410906945	142.918122302641	3.96723877587442	143	18.6694175933171	199	0
27	C3-Cz	59425	59486	61	32.0962724221212	20.3985683229901	120.548640372906	2.66884479506789	137.637038209452	10.8275825992431	98	9.27637461901068	97	0
27	C3-Cz	59608	59659	51	32.796705820463	20.0259504746586	114.816402959022	2.92397944155021	137.637038209452	4.93616846459779	167	17.0904207653281	166	0
27	C3-Cz	59783	59834	51	29.2262863584858	19.4193401573865	105.011342698288	2.53929471167814	137.637038209452	2.14737557993169	163	16.8233761328286	220	0
27	C3-Cz	63707	63784	77	34.5903827331498	17.4590760436747	126.8244186604	3.92525812881128	148.672882463024	7.24660501916075	168	7.26296537559426	167	0
27	C3-Cz	83015	83099	84	38.8691802081885	21.338202132042	134.630467725538	3.39996689620464	152.903089905543	8.39251087652452	139	11.5211221011698	151	0
27	C3-Cz	83366	83416	50	29.5647764214172	24.746232917704	109.532345673124	1.52677662578601	157.892284073991	6.75474075612403	156	14.2656530505293	155	0
27	C3-Cz	88730	88794	64	33.5717198199695	22.6678308107299	117.270378653472	2.31367153400315	159.207186698889	5.63322468445501	142	14.7744056554496	141	0
27	C3-Cz	89383	89439	56	37.7355083168026	21.0393422384554	144.052119756607	3.39311973883641	159.207186698889	8.10194043055112	169	8.1986282554539	168	0
27	C3-Cz	93105	93163	58	36.5186667113412	22.1904537992461	145.519041662309	2.887386116709	159.618170903277	5.15727411943781	173	20.4183480965435	206	0
27	C3-Cz	93885	93935	50	33.940193838028	23.5837921508909	133.461518020347	2.21064960992208	165.254760621108	9.98503415886225	178	17.9260560283623	177	0
27	C3-Cz	94097	94167	70	28.8946710570586	22.2557820454855	120.310735695593	1.84944974226535	165.254760621108	6.72794874452035	122	8.48853349386346	145	0
27	C3-Cz	99333	99382	49	32.8848774467817	19.8188949705514	116.80575693164	2.75317351521621	164.132925195922	4.85230863112361	161	19.4098647770082	168	0
27	C3-Cz	101929	102013	84	33.4553567332128	19.1064769935997	126.169406861656	3.49085715761012	174.804683628859	4.2452722590648	193	16.7332827955249	212	0
27	C3-Cz	102110	102168	58	42.7406689782056	20.5462844802705	174.804683628859	5.13271456320756	174.804683628859	10.3875567462062	169	12.8397013140672	168	0
27	C3-Cz	103089	103134	45	42.7260747015952	23.1385056365091	167.992193544973	3.6794630306976	174.804683628859	3.77466074673386	135	22.8689672617037	197	0
27	C3-Cz	107298	107480	182	34.7741586528619	22.513193900506	165.672261247168	2.67244636593519	165.674502745033	7.02920387438558	103	15.0707995548382	197	0
27	C3-Cz	107904	108074	170	32.9887971671851	26.819730326504	136.256704229219	1.62438375843661	196.669606878352	8.73353217001241	178	13.727094821047	177	0
27	C3-Cz	113004	113053	49	35.8012163421253	24.4086595568685	125.788419040084	2.27703405134894	172.739928534848	4.2155730765913	162	13.9442969246079	205	0
27	C3-Cz	113598	113660	62	27.5377790738208	27.1338755657683	109.64412343144	1.0852760313826	172.739928534848	3.85767929510968	167	13.3525951759968	179	0
27	C3-Cz	113749	113804	55	38.9570230194919	26.2842026404633	129.265334396135	2.25521748314285	172.739928534848	13.6839822988198	168	14.5309446887247	167	0
27	C3-Cz	118403	118493	90	42.0879850297292	22.1228418409092	189.186477948275	3.61938214477746	189.854041848548	2.62785332911024	166	14.7798874327843	204	0
27	C3-Cz	134630	134707	77	36.5536297688774	17.6881468991758	136.303514317205	4.27067325091119	167.529320684101	6.83590931546753	132	7.67655597005069	142	0
27	C3-Cz	135867	135936	69	33.1653330735396	21.8372480231229	131.436588789253	2.44426570724266	153.873391442088	8.60078033469811	149	15.4722385465157	167	0
27	C3-Cz	136124	136170	46	39.9108107373662	20.4535407217771	147.812099081363	4.04666179565932	153.873391442088	10.2463713335011	180	16.9773505038745	179	0
27	C3-Cz	140815	140865	50	32.8412437754876	24.3575441110317	111.594646059897	1.90848110068839	177.03017446021	9.52632658591328	157	16.7754334019209	184	0
27	C3-Cz	141015	141069	54	39.8621604487004	24.1291673185739	134.890867345649	2.79148032159816	177.03017446021	9.00527073509651	130	10.1773918985719	131	0
27	C3-Cz	145684	145824	140	29.3743636912112	23.0487416818754	121.361492931147	1.62421117478234	168.275950462081	4.95240395757445	163	13.4084519924339	225	0
27	C3-Cz	151154	151204	50	34.7752437978974	23.3780022980237	136.686786410673	2.25134438780244	145.983820788568	3.09494958196028	164	19.3109805909283	211	0
27	C3-Cz	152099	152156	57	29.334524510981	20.4638752209181	92.2597746678065	2.21328946374326	145.983820788568	6.36712668464346	165	6.80031808297075	177	0
27	C3-Cz	152480	152532	52	27.0259093776788	18.8005953551353	96.9533419244254	2.15891037038884	145.983820788568	1.66541879000474	216	13.2988592111568	269	0
27	C3-Cz	157365	157429	64	29.5306091645537	17.3101746140512	98.0379643324963	2.91032784169244	149.676899005266	5.41741836193205	141	17.0320866166561	155	0
27	C3-Cz	167177	167226	49	26.8285453212689	22.5755298639333	91.6731188787736	1.41227199086091	162.738878978372	3.2511465924182	128	14.7566537906632	198	0
27	C3-Cz	168333	168387	54	39.7426098939053	22.6084249600728	146.615628609931	3.09009728145344	162.738878978372	4.18476366691226	NaN	20.7815613707828	300	0
27	C3-Cz	172813	172879	66	34.4197973870258	22.4551139572002	117.624268598448	2.41590044230216	162.329527732357	3.24633689231586	150	20.0307184500406	193	0
27	C3-Cz	173027	173080	53	31.673735622439	24.1964668857957	126.952497204851	1.77656938383832	162.329527732357	10.4549399725588	171	10.5096120510326	170	0
27	C3-Cz	174088	174133	45	42.7921749603715	22.1220985211233	176.797951272036	3.74176128232319	181.112888350968	8.83034410283392	242	16.9916494728542	221	0
27	C3-Cz	182978	183183	205	31.8354308009871	23.0774250520331	136.655786466653	2.01224658026977	173.107980699096	7.00785609698956	126	15.2518634057459	148	0
27	C3-Cz	183434	183498	64	37.3232663096982	24.5828882392385	147.919388333523	2.49944671405728	173.107980699096	3.62222450975922	133	15.5242165856755	218	0
27	C3-Cz	187564	187705	141	33.7811088533511	19.7613881946037	153.724199847917	2.92221996064152	172.425393075773	7.4575346024194	143	7.9877035907258	144	0
27	C3-Cz	189446	189489	43	36.5392140318468	16.3364793951965	128.129911090768	5.00266548795944	139.1575751323	5.45904186238058	180	16.6441583325175	179	0
27	C3-Cz	193492	193535	43	28.2108587278136	25.3102917398767	92.325281170733	1.35768901407389	157.17862730853	5.02169481823451	161	14.5820015387286	211	0
27	C3-Cz	194009	194075	66	30.1363094961811	25.5284775214589	112.442331332257	1.50167725453396	157.17862730853	4.45490343792341	113	5.70362219182205	123	0
27	C3-Cz	194295	194394	99	38.1970340991596	23.6882761958874	150.200527022554	2.68518180119557	156.556937162258	7.79876400897729	169	21.7524813786991	179	0
27	C3-Cz	198255	198322	67	36.6655815975548	19.2385318394765	140.074517610793	3.63222968707174	187.138040906936	7.32233073104599	130	8.98775224081655	156	0
27	C3-Cz	203839	204037	198	33.5236043322998	24.6088588263159	155.025737134271	1.92472110324482	167.950901491714	9.36775581771164	168	14.2088229347773	167	0
27	C3-Cz	204670	204737	67	34.9600019122115	23.834819016116	125.727632476708	2.41211351067276	167.950901491714	11.7402264695799	61	16.6079233212738	95	0
27	C3-Cz	208702	208754	52	29.1551650668745	23.6094204319191	97.9675265786272	1.56087715715922	155.451668557345	2.76615906152547	162	13.0206278284693	197	0
27	C3-Cz	209284	209326	42	33.7793600310461	26.5442285395799	122.220903411397	1.66092215476213	160.950408035772	10.3786102859775	146	11.2733898551603	178	0
27	C3-Cz	210221	210279	58	33.722291256516	24.6404686353644	122.499936567445	1.96347610524726	160.950408035772	3.68527686960009	151	20.0352954314518	222	0
27	C3-Cz	210407	210464	57	33.5770749704958	23.3217684460969	125.884219550393	2.14391022533472	160.950408035772	3.33614203305147	158	19.6661946249957	197	0
27	C3-Cz	215532	215573	41	33.3872238460356	16.3233977769343	115.989045427013	4.18349727122791	128.264838457979	3.77945949994794	170	17.9654964567935	215	0
27	C3-Cz	219361	219415	54	30.1383927923656	15.1477721752646	116.445807594211	3.95860936867617	144.546104826023	4.88359891529556	116	6.3968012775824	138	0
27	C3-Cz	235899	235967	68	42.2583013325664	18.9860599654538	174.27655688752	4.95398143596494	174.27655688752	14.948671759925	176	18.7651914151672	175	0
27	C3-Cz	245525	245584	59	35.5232493301543	22.1728147218291	146.050171016191	2.73422867762563	165.256504661395	5.34136095627415	188	17.4484769232363	187	0
27	C3-Cz	245723	245793	70	36.191067428523	23.9608074783907	115.808078542463	2.36917137704298	169.699904481367	2.76231383793902	127	17.4875424694939	230	0
27	C3-Cz	250416	250469	53	32.1073833082898	19.5387218618595	108.941711980102	2.70033424655931	152.842861218299	6.79624299265971	151	7.0695751597114	173	0
27	C3-Cz	255398	255448	50	35.6416951191736	21.0402923867392	127.831314730168	3.02367687152028	149.079502359249	7.77510188217841	178	17.8169547069291	177	0
27	C3-Cz	256016	256068	52	29.3668850487655	26.5494235660911	111.948419980639	1.25990413585301	159.81539462228	3.89500469493116	148	9.4714706977627	196	0
27	C3-Cz	256263	256303	40	30.8087962842447	26.3581154874162	102.399270356508	1.40706872339019	159.81539462228	2.73227432827849	102	16.8560771966661	205	0
27	C3-Cz	260510	260564	54	40.5937421932746	17.0793826072399	132.726621354047	5.64902950814611	137.560067081577	10.2870046232525	164	13.0613932830693	163	0
27	C3-Cz	261908	262189	281	30.1966975148158	24.8554526023934	154.260763597649	1.47596325515744	168.890474420291	4.90521771615085	157	10.6183980184899	233	0
27	C3-Cz	267182	267261	79	44.1956258844605	24.1878500333291	168.563085448609	3.50983176235036	170.688501338568	6.77049763386464	190	22.361318388477	189	0
27	C3-Cz	267403	267483	80	35.5144203050266	25.5755999384192	126.629748524328	2.10219210835215	170.688501338568	7.45159232964061	243	16.800000829529	239	0
27	C3-Cz	272417	272470	53	34.81941863316	21.1958881542657	118.315219038794	2.8784614176678	141.914580907647	7.53599796151786	170	15.4359835152335	169	0
27	C3-Cz	272610	272664	54	37.973240432637	20.5979097648564	130.3254724936	3.58337940104637	141.914580907647	6.02223525880736	168	19.455130652868	171	0
27	C3-Cz	307660	307710	50	32.0532051561525	18.2504855932803	112.719111978072	3.08456607612278	176.392953383321	7.82200104702491	68	13.6497216241546	96	0
27	C3-Cz	312921	312986	65	38.7036515582788	18.2354922208092	147.865620076305	5.07571556588341	154.2830250665	8.20200682406439	135	7.58787865534246	134	0
27	C3-Cz	313112	313172	60	39.0078135488717	19.4809515940641	140.639690006978	4.45777225654119	154.2830250665	11.0108190829847	187	15.8520023965181	186	0
27	C3-Cz	314241	314305	64	34.9213405392108	15.9430140531786	135.738318333464	4.79778691598829	139.467403505096	3.2516729435325	157	19.587881236164	206	0
27	C3-Cz	318742	318788	46	35.2529181663451	19.2525962304167	132.917891178776	3.35283004877291	144.158498608063	7.37507544345427	137	8.64611463932924	159	0
27	C3-Cz	328859	329014	155	29.8833939015795	17.7652347717585	120.457671270102	3.21515009641507	172.211772121358	7.43018049158974	61	10.260900836941	82	0
27	C3-Cz	329101	329254	153	27.7366205072828	19.1390234515269	125.257916294198	2.39110271717255	172.211772121358	6.7010597394485	187	10.3745307849871	186	0
27	C3-Cz	356085	356130	45	38.2676528512917	20.8177545967252	151.812412767332	3.37905983183265	164.509709167627	4.99224111171877	179	18.182643175096	178	0
27	C3-Cz	362247	362293	46	26.3940172249824	13.1685359648662	91.8938243681241	4.01731608074904	98.8578327875575	5.58440931888411	61	13.1527847381378	91	0
27	C3-Cz	366229	366272	43	31.7228952678689	22.981838593291	119.250506531923	2.12879388555683	184.373635894384	4.0362822290359	186	17.3028165011419	224	0
27	C3-Cz	367116	367188	72	44.6265321998061	20.5607131900109	172.377268242706	4.86195017040916	184.373635894384	10.0110262002372	131	15.2360252867257	130	0
27	C3-Cz	372241	372292	51	35.9269756925416	27.4658223885717	131.538562168309	1.79913795216498	188.235585556545	7.70132710704716	214	14.5207285262753	212	0
27	C3-Cz	372424	372576	152	34.6464646350611	25.7926164430551	142.635031888839	1.85082854031635	188.235585556545	8.92479651684279	165	12.4375232445322	164	0
27	C3-Cz	376000	376062	62	27.6673003287531	22.1944388559511	107.070501121555	1.55397930343499	169.252524826074	3.41378573074925	138	15.1845831359364	193	0
27	C3-Cz	382198	382260	62	35.7038222260205	24.4061908855319	130.507338229615	2.14007707887636	153.91281003546	9.42712953571348	155	13.4247261912662	154	0
27	C3-Cz	386534	386654	120	38.5713570390075	17.9278144247503	148.266260967621	4.62887167727142	163.29545038932	5.52075945988909	160	18.7649166044562	203	0
27	C3-Cz	388045	388109	64	27.6820984977257	21.0738973129287	92.3504253754685	1.72547352551707	153.28907494525	6.35277957484572	166	12.3624701178037	165	0
27	C3-Cz	392122	392170	48	34.5000812077556	23.8678845776361	123.263012928354	2.48782335836814	165.316553378617	2.97874799359586	153	18.3763429287682	197	0
27	C3-Cz	392390	392600	210	34.4863240357989	26.0551530307025	153.478279207576	1.89565533278434	169.612966633136	5.38908641436212	165	14.3578020611853	241	0
27	C3-Cz	392964	393031	67	30.9234769852634	28.1598271347294	107.533453372397	1.3526458827954	169.612966633136	8.12953564173827	169	11.9759762361755	168	0
27	C3-Cz	393288	393368	80	35.805569498162	27.2693914781517	158.77057372812	1.88375767593409	178.253938835742	9.83425619173591	129	11.5929339752855	128	0
27	C3-Cz	396503	396549	46	31.6558041353506	20.6584673983833	115.636441534964	2.75934633171791	177.186624530792	1.2962178084219	158	15.3406813963062	200	0
27	C3-Cz	396813	396886	73	35.5880919223771	23.1022115337125	120.97950939114	2.56198035741468	177.186624530792	6.76288285939874	128	9.71417188445098	127	0
27	C3-Cz	397365	397406	41	42.4335039256691	24.9710504584893	177.186624530792	3.05827773858967	177.186624530792	2.72303731051561	183	21.4259347429329	223	0
27	C3-Cz	407305	407356	51	30.2507273479658	24.502828578607	101.602198380965	1.80766357968488	167.084540953691	2.44591094372412	146	16.1519795095676	201	0
27	C3-Cz	407779	407832	53	41.1690945189354	22.3053011102165	156.390686753877	4.08932220448578	167.084540953691	4.01769751352979	187	20.4235757058712	213	0
27	C3-Cz	408088	408261	173	34.9219694155309	20.0787434684745	159.281725780509	3.46194417721188	167.084540953691	8.4844143954016	168	13.0795013033845	167	0
27	C3-Cz	414074	414121	47	38.8763569626601	18.0027678118781	139.171500970815	4.7724299831407	145.933883417877	4.92994528850057	182	18.6284859978071	186	0
27	C3-Cz	414938	414980	42	25.7180390365976	25.2752055985808	86.2453051080869	1.14484296855273	157.586135281302	5.7979538290903	183	14.4786116393409	182	0
27	C3-Cz	415387	415448	61	28.6835421044862	22.5776166685562	101.933317881972	1.74898491223771	163.368792056505	3.7932462496084	153	13.8295782264264	207	0
27	C3-Cz	415789	415865	76	37.2216563089096	20.6930530795341	149.581641827216	3.37913434299289	163.368792056505	7.85323747150681	186	16.7073230732727	185	0
27	C3-Cz	420211	420259	48	39.1408239556365	20.2400710679564	123.594767140277	3.89683255086544	157.119618272101	9.1613201929264	176	18.7801441308745	175	0
27	C3-Cz	420865	420923	58	30.8727691459599	18.4306291712036	120.688238570424	3.07716021926921	139.718848398063	8.02444747645049	61	11.8617641551247	106	0
27	C3-Cz	426433	426496	63	34.1291383858834	19.8086686794177	116.027416639319	2.96852063820408	139.97634476234	6.8828840913468	190	18.5960065271108	189	0
27	C3-Cz	436102	436339	237	29.8875644659456	24.5561406057993	135.124312760101	1.54351832640656	169.867822517116	5.35530394056274	113	13.1961042756863	226	0
27	C3-Cz	436601	436643	42	28.0347691118939	24.9568666238234	90.3306187312442	1.39597557755163	169.867822517116	5.46653762723417	177	14.4633952480823	176	0
27	C3-Cz	436850	436939	89	31.9270263636067	22.6562253492093	126.19709090728	2.24583594288456	153.287794828419	5.8621983428688	86	8.11376014690248	114	0
27	C3-Cz	441159	441280	121	34.6000217405987	15.7780357090535	136.887141881229	4.80891249015742	136.887141881229	3.1926681386614	126	16.910687444746	200	0
27	C3-Cz	445791	445852	61	32.8892874520694	15.1412949081188	117.465087198545	4.71827111923336	131.403192149432	9.92551891375895	179	10.9134740832611	178	0
27	C3-Cz	447730	447776	46	25.5321156414776	16.2416676864641	84.4454239301418	2.47122543290118	134.286716246067	0.724117206726754	107	14.8048172125962	203	0
27	C3-Cz	452906	452949	43	37.499995415036	18.4083551925111	145.010326083676	4.23929184910578	145.010326083676	2.96301378510425	149	19.0520960785193	214	0
27	C3-Cz	453211	453262	51	24.6312443640768	16.3076706454589	81.8438968038667	2.52486893421344	145.010326083676	5.98516752894161	146	7.49676772519808	174	0
27	C3-Cz	457449	457499	50	29.5786388053627	15.9667319736942	91.5024110213659	3.6373080598085	111.950667536464	7.92581685368119	117	11.7787582708173	157	0
27	C3-Cz	458310	458375	65	26.0187891415924	18.5264140402837	88.8574360103289	2.0557092794853	140.169052192969	5.92925267589345	165	12.971179752459	164	0
27	C3-Cz	464624	464667	43	29.7974560770349	20.3109927859277	109.316881939662	2.15226663273098	149.824499463663	5.75136447365624	169	14.3783945490358	181	0
27	C3-Cz	470078	470120	42	31.4972722121425	23.4576463584649	112.455632819324	1.80292233227384	168.344130052038	2.11421201989157	186	12.4766176059928	254	0
27	C3-Cz	474762	474826	64	35.9168707147677	22.6115120290986	139.431097366026	2.58746750590268	152.584998594431	11.6633263786784	144	12.8950921582297	150	0
27	C3-Cz	475007	475055	48	31.8990708592309	22.9029609639503	116.81217681459	2.03986674558937	152.584998594431	3.05749722000857	178	15.5907285673636	228	0
27	C3-Cz	479287	479340	53	30.6653775990672	14.311072394164	108.930913760512	4.5914755521188	125.989449673182	7.90338961617471	96	9.69933948251773	95	0
27	C3-Cz	486279	486326	47	32.5056566560197	23.4475202849455	124.405723975887	1.92187017462454	170.890689684376	10.4052859809517	176	10.872418669572	175	0
27	C3-Cz	494690	494738	48	39.577524560647	18.9452231682843	159.457083584773	4.36413124797641	159.457083584773	3.88008498217363	143	19.8311451156484	201	0
27	C3-Cz	499979	500034	55	40.7348928559469	16.7985141797567	158.060897236026	5.8801907704853	158.060897236026	3.25458055388512	169	19.314040456077	205	0
27	C3-Cz	505424	505478	54	35.2575474600878	20.4138304138356	127.515281498238	2.98301332398982	150.850611025717	6.64997985795469	170	16.0308140546094	169	0
27	C3-Cz	520988	521028	40	36.0679322543602	18.3905102264031	126.07326033537	3.92001697677202	149.824683196081	1.75128269661667	129	19.0001129527359	208	0
27	C3-Cz	522011	522063	52	37.830488519732	21.1526932837343	149.554051916254	3.54566644547473	170.573763870371	12.1903337668143	127	14.4890208112389	167	0
27	C3-Cz	522683	522762	79	35.8634217107812	19.1502055579786	158.798435819455	3.8080354161209	170.573763870371	4.66757175792829	152	15.1969609579781	236	0
27	C3-Cz	526365	526541	176	34.1371235899165	21.7816448552751	131.966296702969	2.56956075678996	176.957368087577	8.69031580701135	122	9.33481645600695	149	0
27	C3-Cz	526895	526956	61	33.5917982926972	25.5078332636463	129.617241746681	2.04517838697601	176.957368087577	8.91744332724969	131	9.28232516680085	155	0
27	C3-Cz	527616	527669	53	36.2858088159319	23.9790400835612	137.616167465619	2.48791795423996	163.411697292469	6.91687779524602	157	7.07019420390128	156	0
27	C3-Cz	527771	527822	51	38.3792597775925	23.8201188041762	133.846008143669	2.80822776070418	163.411697292469	3.90151697253286	159	15.5468859286291	223	0
27	C3-Cz	528355	528401	46	25.3463399996392	23.1119282487264	87.4637338034445	1.32167924368715	163.411697292469	4.87497592466691	159	14.7634658346302	159	0
27	C3-Cz	532464	532513	49	41.1012862584585	28.4632133450614	153.599624724901	2.11315628754301	170.202924842184	6.13263259662106	187	20.375880747692	186	0
27	C3-Cz	533152	533197	45	35.5782191764689	25.4844447584137	130.293074287899	2.03246968840605	162.112139792685	6.0739730964227	160	15.2698895221084	207	0
27	C3-Cz	537125	537182	57	33.0851187105051	23.563638648221	132.343569628864	2.14246234308269	171.121445404103	4.37715960733562	110	11.804200920024	128	0
27	C3-Cz	537525	537575	50	38.2449237754902	22.9053131502481	139.23716356185	3.00781947596593	171.121445404103	12.0908255763404	129	12.9865804500558	166	0
27	C3-Cz	537666	537719	53	35.4081815663018	22.1547489619025	132.089583447339	2.8104243636354	171.121445404103	11.4487343826925	110	12.9642837347058	144	0
28	T4-C4	45673	45744	71	5.1448981037856	2.04974243115934	19.8342861055182	6.30020923366607	19.8342861055182	0.978127887388489	83	2.84394984648125	82	1
28	T4-C4	558563	558632	69	5.3250445502241	2.11797783056353	17.6723080894915	6.32126025466027	17.6723080894915	0.719429566652715	89	0.474902537669963	88	1
29	C4-Cz	2764	2816	52	36.6800553356701	21.8631832524508	115.30863277887	3.05683644427177	159.344017990765	4.05439338670554	99	19.8224148172186	196	0
29	C4-Cz	2964	3007	43	28.5485625870564	23.0760158404315	101.293251146207	1.69419254929582	159.344017990765	4.38277240258393	196	14.4377007970527	212	0
29	C4-Cz	3257	3309	52	39.4672493523368	24.5274849026103	149.818733515722	2.70452774211414	159.344017990765	10.9153156723037	120	14.1395571154691	162	0
29	C4-Cz	4547	4612	65	31.5867096359733	24.184871948258	114.397358186993	1.70577282664327	177.172479064646	6.82924813796396	187	18.4797555135413	186	0
29	C4-Cz	9713	9763	50	33.427064648795	20.4676818398152	131.323556394683	2.66722201847672	161.484057430711	1.82361488568813	124	17.8442314902504	194	0
29	C4-Cz	14194	14267	73	41.032453497749	22.3187062384456	139.988145712475	3.61546104783629	160.636860399872	8.47592221895573	103	13.2143345674058	126	0
29	C4-Cz	14919	15001	82	35.3183684244774	23.8667697926694	126.873694570829	2.39564210266592	160.636860399872	9.18600318153606	112	9.30242161850408	114	0
29	C4-Cz	15982	16027	45	26.67099171454	15.292652067017	101.952047448624	3.08530505723384	134.768170867619	3.78370329427699	161	4.05608341363809	170	0
29	C4-Cz	19221	19268	47	33.7170375307421	22.2067102547757	113.072385529864	2.30531547999342	163.72633750043	9.4281512240549	140	11.4288676704863	144	0
29	C4-Cz	30835	30964	129	40.1286268740591	22.0935790709919	159.683326244404	3.2989554248202	160.957897891891	2.33878537193134	137	17.9973530962953	198	0
29	C4-Cz	34051	34110	59	30.1687290369956	22.4799903125194	109.272153886491	2.01939165264966	180.400857089761	3.10619324849507	192	18.6129337916048	204	0
29	C4-Cz	34600	34651	51	30.7976328688942	27.0427482945453	124.34632838959	1.35593682706647	183.790867523145	5.1849117555299	189	16.7355931101808	188	0
29	C4-Cz	34828	34992	164	30.9221101618095	28.4684464416778	147.519350733673	1.19271271454321	193.475035140955	5.85917615447395	171	13.0308532953154	221	0
29	C4-Cz	35491	35541	50	29.466938582857	28.1657550095493	103.351804428217	1.1277112041655	184.622815219634	10.5868090278519	101	12.8076138950837	100	0
29	C4-Cz	36299	36365	66	29.4894786059577	22.3635076656212	106.077706073774	1.77297223001629	184.622815219634	4.37123695807253	169	13.6396369127143	168	0
29	C4-Cz	41142	41189	47	26.9499939108277	23.9722909054593	104.26035907591	1.30310420690602	159.126585170543	7.50624257490106	150	14.1417621044606	179	0
29	C4-Cz	41380	41448	68	32.5428054291357	22.5188791379367	117.392061657202	2.11085053540404	159.126585170543	4.39306389944559	136	17.0469297268977	153	0
29	C4-Cz	44862	44906	44	30.1734165079549	19.5985007049902	98.5336005478037	2.37029978799771	168.921039472434	6.63019694835054	165	13.5835345217379	173	0
29	C4-Cz	51181	51233	52	39.1504943613022	26.3801819421215	157.483236115749	2.28286359283474	177.34021028155	5.91271672525206	164	6.20369343448589	166	0
29	C4-Cz	51583	51702	119	32.0995645953061	23.7149564189758	134.099860464293	1.99007004079159	177.34021028155	4.45459258432909	177	14.6183704460955	225	0
29	C4-Cz	52189	52259	70	31.8979497029233	19.9986973558745	121.410085451798	3.11541862175754	168.653223785977	7.02269044900988	163	15.5187413503339	162	0
29	C4-Cz	57667	57733	66	33.9012759585786	22.5384080184782	120.735253997748	2.33239016174831	152.358720308563	5.46153605697163	135	15.3090596065307	215	0
29	C4-Cz	57894	57944	50	33.0123308454995	22.4424970851589	106.86021257565	2.2643727172604	143.853963496222	4.07507326242639	145	9.89542024613126	199	0
29	C4-Cz	59424	59486	62	31.8717913587608	20.5301900992516	121.03500360305	2.59491534047142	136.041088819454	10.8082930902062	97	9.56721654010097	96	0
29	C4-Cz	59608	59659	51	32.901978729308	20.1947614496557	114.980265520755	2.88549799974739	136.041088819454	5.36214658430435	166	16.8705532089808	165	0
29	C4-Cz	59783	59834	51	29.2446981823161	19.5828461379892	104.812134447018	2.4929361230727	136.041088819454	1.80074814627089	161	17.0267267139306	221	0
29	C4-Cz	63707	63784	77	34.5372087721696	17.5858360730872	124.186033102852	3.85698926915103	152.311867939936	7.37360465497011	168	7.38652923285477	167	0
29	C4-Cz	83015	83099	84	39.161751548381	21.4639069816007	133.888067010043	3.40973537899966	153.303368927488	8.47739054729844	140	11.5183882000624	151	0
29	C4-Cz	83366	83416	50	29.6285909421653	24.8639075543766	109.747163780486	1.51987854138809	160.14643097053	6.98373654585878	155	9.81969240136616	154	0
29	C4-Cz	88730	88794	64	33.3197820246209	22.6115755626247	116.885620564766	2.2848409272517	157.530934891003	5.90905903326542	141	14.8479503297221	140	0
29	C4-Cz	89383	89439	56	37.1010663187851	21.0254719934216	142.709961508467	3.28027152222859	157.530934891003	8.13858833170084	168	8.32033209315115	167	0
29	C4-Cz	93105	93163	58	36.7512260185764	22.2327065450097	147.009766800899	2.83456914138319	162.408894251358	4.98148422745594	121	20.4321629518499	206	0
29	C4-Cz	93886	93935	49	34.4746143651543	23.7060481836656	139.84563141532	2.20909133971335	164.273148615728	10.4787168259555	177	17.8666362595267	176	0
29	C4-Cz	99333	99380	47	34.0660256160033	19.8700592591403	117.645474108996	2.93930472408856	161.278031207509	5.33570012962262	163	20.0135859736849	168	0
29	C4-Cz	101928	102013	85	33.7873020902905	18.9183771685577	123.748629810118	3.64412248876933	172.718493683005	4.3318288033977	191	16.7357608381537	213	0
29	C4-Cz	102110	102169	59	42.4407091730004	20.4515538147577	172.718493683005	5.15026739117869	173.048332607742	9.95122351771138	171	16.3977979568478	170	0
29	C4-Cz	103089	103134	45	43.0006378956662	23.0691357159343	170.966377050254	3.75109993115174	173.048332607742	3.72932323040345	135	23.0031851173236	198	0
29	C4-Cz	107298	107481	183	34.9716678295738	22.5911599644801	164.164653099375	2.68781197557424	166.262637508325	7.11849109597534	105	15.0195838542754	198	0
29	C4-Cz	107903	108087	184	32.4539929027152	26.8484455063931	137.260315180487	1.57213204246542	197.842496620889	8.9781915765122	178	13.5540955744308	177	0
29	C4-Cz	113003	113053	50	35.923410492716	24.5271589514923	129.593775569021	2.24111982835434	172.973179417109	4.27278441872884	161	13.7642527226054	205	0
29	C4-Cz	113749	113804	55	38.6745740800614	26.3821023618758	130.402049884053	2.19810680191976	172.973179417109	13.707236085584	134	14.6133476334855	167	0
29	C4-Cz	118403	118478	75	44.231908196749	22.387516773363	191.51176512673	3.9035478075102	191.51176512673	3.18140827268497	173	17.2169716894201	201	0
29	C4-Cz	134630	134707	77	36.2779035733811	17.7061383053473	141.286827000443	4.19794418266761	161.164305494446	6.86522962615659	130	7.99034005925037	142	0
29	C4-Cz	135868	135936	68	33.4005157021841	21.8941020975818	131.723826556491	2.47025859123439	156.35619165629	8.86584596687589	149	15.5503133106001	167	0
29	C4-Cz	136123	136169	46	40.3991570834619	20.4856022019586	151.073137687286	4.13405281943868	156.35619165629	10.0968360947701	180	17.4566322602484	179	0
29	C4-Cz	140815	140865	50	32.6084171498608	24.1403409520876	105.729496593676	1.91484693094477	175.221236104396	9.755784497347	156	16.4476318089953	184	0
29	C4-Cz	141015	141069	54	39.4183489768193	23.9088097730957	133.424818006105	2.78078500627925	175.221236104396	8.80588088921338	128	10.1822321410582	131	0
29	C4-Cz	145605	145724	119	35.9937124834498	22.0807544136421	163.653340048633	2.65720751165332	163.653340048633	6.12212650738341	115	15.0192653357832	244	0
29	C4-Cz	151155	151204	49	34.7852236541005	23.4952307417641	134.515587205731	2.23235423938842	148.593701392453	3.12882829840965	164	19.4931913346633	210	0
29	C4-Cz	152100	152157	57	29.7755412326234	20.5893417576965	94.0216437233258	2.19579025216724	148.593701392453	6.39760355559441	167	6.77797770567148	177	0
29	C4-Cz	157364	157429	65	29.0425201094075	17.384747529069	98.6064648602927	2.7908199669359	145.653105023192	5.21836043403904	141	16.9337190772412	154	0
29	C4-Cz	167178	167226	48	26.1233438482941	22.6050313611699	87.7009340126718	1.33551049713484	163.539301722358	2.9882552843625	126	14.2246753067671	197	0
29	C4-Cz	172812	172879	67	34.2579930815324	22.4878468552519	118.651426101948	2.39116305504779	160.102543420727	3.23939918212814	154	20.1291774942134	193	0
29	C4-Cz	173026	173080	54	32.1299454454061	24.1658578282163	128.779749709388	1.83286128684373	160.102543420727	10.7200623112155	173	10.7049935626965	172	0
29	C4-Cz	182978	183027	49	33.0116264265002	23.9635038980143	124.510008224112	2.05529911103595	171.12289663348	8.09121621689914	148	8.95327010217261	147	0
29	C4-Cz	183128	183183	55	32.9737136507533	24.4079783312335	108.471985127919	1.95995007852879	171.12289663348	5.54839052304229	135	18.9144908075118	154	0
29	C4-Cz	183434	183498	64	37.4828311666923	24.4520278469213	150.501652295511	2.46291196164129	171.12289663348	4.38989602028648	132	15.9425644057232	217	0
29	C4-Cz	187565	187705	140	33.7537541280072	19.7794510766919	149.983375353332	2.91216310574271	168.089016785462	7.3989864462558	146	7.6792911281853	145	0
29	C4-Cz	189446	189489	43	36.3272464634018	16.4291018493281	130.557420276077	4.88919452672235	139.391362982201	5.32230286619755	181	16.5323602133155	180	0
29	C4-Cz	193492	193535	43	27.9602676534785	25.4467603597624	88.2055530355571	1.32443681159151	156.070153684246	4.80291916730378	161	14.4998187181419	211	0
29	C4-Cz	194009	194075	66	30.7542249388146	25.464325330382	115.590090833256	1.57760723868206	156.070153684246	4.07523400702157	116	5.3001253423276	123	0
29	C4-Cz	194295	194394	99	38.6960576052105	23.5730915899341	150.61531422851	2.79057189483558	154.480570143465	7.9225605833187	168	22.2405389371588	179	0
29	C4-Cz	198255	198322	67	37.0726142706	19.307555452449	144.051614697173	3.87292433552723	191.683970300179	7.7437434189464	129	9.20865586371577	157	0
29	C4-Cz	198423	198469	46	33.4235473965889	21.019492231377	137.059822865076	2.73140423126742	191.683970300179	7.86947676800255	153	15.7693920972241	152	0
29	C4-Cz	203838	204038	200	33.5382047211449	24.5433009505781	157.71258396273	1.9432241429713	166.549523484302	9.63693157711445	168	13.9604096326251	167	0
29	C4-Cz	204671	204737	66	35.7967282422755	23.7873477107014	129.220040759251	2.54558030182051	166.549523484302	9.90353574852019	164	17.1696120542217	163	0
29	C4-Cz	208702	208754	52	28.9802507576439	23.7527179490313	94.3241484859797	1.52629690559543	155.503468412642	3.0388852560114	162	13.2658032009673	197	0
29	C4-Cz	209284	209326	42	34.6178704269382	26.596376880963	121.793316777161	1.72691084057563	159.289956249288	10.8239722760391	147	11.7766214942665	181	0
29	C4-Cz	210221	210465	244	29.1837308162346	23.3356277356497	130.470716327261	1.60640192026124	159.289956249288	4.35461739663319	160	12.4328455894237	217	0
29	C4-Cz	215532	215574	42	33.425680911309	16.4283170580417	117.126876584891	4.13975247196063	124.992838283849	3.6597264587076	170	18.1693229240982	216	0
29	C4-Cz	231764	231804	40	26.8005405229866	18.0583705886536	95.6344712051192	2.2025713395185	149.197732670722	3.91219595844748	176	14.6734986147173	184	0
29	C4-Cz	235899	235966	67	42.5458618252864	18.829837153288	180.692760337152	5.10530299797818	180.692760337152	15.0816099170344	155	15.1430187426786	173	0
29	C4-Cz	245526	245584	58	36.5930955841608	22.2374540070394	147.381149693736	2.87363271880964	164.217382683582	5.73076271267178	189	18.4329742511579	188	0
29	C4-Cz	245723	245793	70	35.6299034442542	24.0872251099102	115.153349062569	2.27863437391281	167.446091861926	2.94429475285472	129	17.4794131836633	232	0
29	C4-Cz	250157	250200	43	23.0245158487655	18.3237004440155	71.147706766078	1.67382626669098	152.092938824724	3.48398271962888	191	12.5864421817928	215	0
29	C4-Cz	250416	250469	53	31.9680872405278	19.4979709279028	108.219970111215	2.71222167492912	152.092938824724	6.90600431392921	153	7.3446251700564	173	0
29	C4-Cz	255398	255449	51	36.4417089487115	20.9948189010782	134.03407873308	3.01282013249657	147.854505847056	7.56437103414438	176	18.5490894848465	175	0
29	C4-Cz	260509	260564	55	40.6096562726208	16.9553251325636	134.220971061279	5.73649187514611	137.553537814076	10.2903184152558	164	12.9161854631245	163	0
29	C4-Cz	261908	261967	59	31.6834185416234	26.1776296058759	114.121645064861	1.47585404385904	165.63231037438	4.08521326348305	134	16.213341355521	227	0
29	C4-Cz	262139	262188	49	29.7305740933168	25.9211845616003	102.771519013697	1.33592966490624	165.63231037438	2.3908279595724	205	17.365471357965	226	0
29	C4-Cz	267182	267261	79	44.8840611046249	24.3931663141881	171.177847393152	3.55715563727654	172.142531679843	7.14384542294621	189	22.598823242567	188	0
29	C4-Cz	267403	267483	80	35.7004323242555	25.8436893430991	125.806379313075	2.08328400851398	172.142531679843	7.49979856847745	242	17.1597056807771	239	0
29	C4-Cz	272417	272470	53	33.9575265224202	21.2519930504997	116.017497754502	2.72096646755733	142.254309123264	7.6730805379711	170	14.7344222057653	169	0
29	C4-Cz	272610	272664	54	37.905691150542	20.6357316863424	129.179951779539	3.54205469585206	142.254309123264	6.24452226573945	165	19.6491178324841	170	0
29	C4-Cz	307660	307710	50	32.486570477154	18.347041551968	115.697942158087	3.13527503076403	180.10543348376	7.83605567303976	68	14.2949868993589	96	0
29	C4-Cz	312921	312987	66	38.4985701149491	18.3570032895598	146.654736928342	4.39830789117119	161.16098854999	8.57040296089997	135	7.78419128798784	134	0
29	C4-Cz	314241	314306	65	34.4809991018319	16.0358926259875	135.251519392327	4.62352705385602	137.476034836424	3.07228099469506	157	19.4508778540825	206	0
29	C4-Cz	318392	318445	53	28.376055785881	18.9987147500171	91.7748067063635	2.40618163646893	141.026848526916	6.78597162632141	176	14.7496561564675	175	0
29	C4-Cz	318614	318658	44	24.2756773677031	19.7918246581906	78.8424013989847	1.63830211731375	141.026848526916	1.7769115315647	140	14.2477212720778	230	0
29	C4-Cz	318743	318790	47	34.529032330545	19.2245225950538	129.458956863459	3.38702051713244	141.026848526916	7.74519926297859	134	8.91919123190904	159	0
29	C4-Cz	328858	329014	156	30.4461013446067	17.8553039777908	122.762178854841	3.06229433802858	170.980100496286	7.48963054277336	61	10.6908150609644	82	0
29	C4-Cz	329102	329161	59	28.9770937695964	19.6168063274171	104.878674214439	2.47957677917706	170.980100496286	7.39263838758651	177	8.12781750583587	176	0
29	C4-Cz	356085	356215	130	33.9370711054563	20.631185287046	159.714096626827	2.70582906735846	165.362462731998	10.4405464257632	135	11.7553979223009	146	0
29	C4-Cz	362246	362290	44	27.1552506597561	13.1065969803353	91.7349423557088	4.2926723517806	99.3226653804007	5.04608290138017	61	14.2087472488803	91	0
29	C4-Cz	366229	366272	43	31.9965592787317	23.2295968981484	122.57972585255	2.11595162449393	182.797615311599	4.13336934292856	186	17.5935152457339	224	0
29	C4-Cz	367117	367188	71	45.0904730153754	20.7006481531639	169.475604449681	4.89766601475264	182.797615311599	9.88214446694926	131	14.9144932399325	130	0
29	C4-Cz	372241	372292	51	34.9816420329715	27.4302048667065	123.332557741355	1.65016883997591	187.140063040021	7.50487469505064	214	14.1371516558169	211	0
29	C4-Cz	372508	372576	68	32.4955087471392	26.4035781287176	119.443122835035	1.54584876678195	187.140063040021	7.03062204852427	166	11.4013742979758	165	0
29	C4-Cz	382198	382261	63	35.2770408900463	24.6360130050503	126.424018254682	2.05042291898923	158.222675979905	3.29710528423411	174	13.4964010404415	197	0
29	C4-Cz	386535	386654	119	38.0348452015017	17.9755234514399	147.748954554721	4.47713524908676	165.790896343323	5.38461132839874	161	18.8320004822819	203	0
29	C4-Cz	388045	388109	64	28.69728946234	21.0428146524625	94.6057526397654	1.8598336320852	149.581097504433	6.30291307662645	166	12.9091793575936	165	0
29	C4-Cz	392122	392170	48	34.5943197504835	23.9448987576113	123.500932208835	2.50359644265453	161.907683050378	3.05747478577921	155	18.3452255622957	196	0
29	C4-Cz	392390	392599	209	34.9992607197235	26.0750843768072	150.159145284236	1.95550800645168	164.491606944637	5.17575366450926	164	14.5727886630114	241	0
29	C4-Cz	392965	393031	66	31.3502798215091	28.2382868256636	108.316159075578	1.39088021538021	164.491606944637	8.45132930734122	169	12.4103782478313	168	0
29	C4-Cz	393288	393368	80	36.1601986732384	27.3494427784503	157.025335376797	1.92082543241573	173.945257979556	10.0442667552552	129	11.8200096800247	128	0
29	C4-Cz	396812	396886	74	35.8885691734154	23.0517614122559	121.324032751692	2.54612760568824	170.433395718272	6.94505548330197	127	9.68214375484162	126	0
29	C4-Cz	397365	397406	41	41.4870785631948	24.9323758988307	170.232703791829	2.94579730299157	170.433395718272	2.54275944595475	185	21.3138321911741	222	0
29	C4-Cz	398162	398223	61	30.6197576582193	22.1198803428735	103.300201242537	2.02558091651753	170.232703791829	7.11579453107982	94	9.09251108335216	131	0
29	C4-Cz	407306	407357	51	31.0074305831545	24.5919754455494	103.906301564833	1.80243479200322	165.313227651455	2.88789575278801	145	16.5676262215953	201	0
29	C4-Cz	407779	407833	54	40.8545526753825	22.4745219537546	154.633218328967	3.7172731635281	165.313227651455	3.76275642679225	185	20.3255568007339	214	0
29	C4-Cz	408199	408261	62	42.5063259051762	20.8531926734123	157.646830438465	4.69869224429077	165.313227651455	8.29454952859258	164	18.6621582794482	163	0
29	C4-Cz	415387	415448	61	28.5331815294401	22.6044649967186	100.693878753818	1.7760528922013	163.164329006746	3.99287310640808	153	13.570635257322	208	0
29	C4-Cz	415711	415864	153	33.7790260898136	20.0369459046093	154.567049547785	2.93867902176629	163.164329006746	4.89622186370701	181	11.6753538612479	213	0
29	C4-Cz	420210	420260	50	39.3177377379233	20.4157714854637	128.151440490556	3.70890279241708	161.532018130795	9.08650916449242	176	18.9577785179611	175	0
29	C4-Cz	426433	426496	63	33.7239784298408	19.8783620188817	116.273876936614	2.87816981737977	142.060922549692	6.83440941102385	191	18.2177881856011	190	0
29	C4-Cz	436102	436339	237	29.6243893281767	24.4945702740106	135.747177863137	1.51378361316864	165.743455115491	5.554967047407	166	13.1743892101994	230	0
29	C4-Cz	436601	436643	42	28.6497065373239	24.8131452831194	94.199373135465	1.45918975000898	168.499643305474	5.98398255840694	176	14.8043498237056	175	0
29	C4-Cz	436867	436939	72	31.5009777216013	22.7324980415117	116.275016627145	2.16094736713265	154.573508092284	6.33197400518334	88	7.83202523596685	115	0
29	C4-Cz	441159	441280	121	34.6240956756624	15.8979271246982	131.419271659794	4.74324846227155	131.419271659794	3.53515294068348	126	16.9811281741708	200	0
29	C4-Cz	445791	445852	61	33.4939484283506	15.2543650727974	118.16192580103	5.46717955054979	132.514673850139	9.71632040440875	179	11.064421169142	178	0
29	C4-Cz	445991	446047	56	34.2065580172639	16.1206707779758	132.514673850139	5.03696883876152	132.514673850139	3.3493127027715	132	17.9242274721394	219	0
29	C4-Cz	447730	447776	46	25.0223324095062	16.2089026568234	82.1340004324413	2.38313338228281	135.641494386803	0.924223254414043	106	14.4436982277402	203	0
29	C4-Cz	452905	452950	45	37.2732827331196	18.5288425360971	144.544835940475	4.14180885264844	144.544835940475	2.98566647607748	150	18.74772651627	212	0
29	C4-Cz	453209	453262	53	25.0496624753057	16.4299075449913	84.7505331994787	2.57598440991635	144.544835940475	6.16292383837617	145	7.64681681433924	174	0
29	C4-Cz	457449	457500	51	29.5987013494446	15.9301581395893	94.3053296614928	3.64412104542375	110.426756951093	7.96700675480836	117	11.7613618641012	157	0
29	C4-Cz	458311	458375	64	25.5242077464659	18.5415427375307	88.3190026181098	1.97671502309402	141.37548905194	5.62357891158568	165	12.9313171154082	164	0
29	C4-Cz	464624	464668	44	29.5551667091857	20.2831507599742	108.489706491857	2.123224854459	144.826500319596	5.95189522633157	172	13.8569722733702	181	0
29	C4-Cz	469936	469989	53	25.6044314380952	24.018792023055	98.8852848712464	1.15609095048734	167.940387057166	4.57457853711911	162	13.220494355916	161	0
29	C4-Cz	470078	470120	42	32.0046014789207	23.4929460068908	113.825666140593	1.86560390679693	167.940387057166	2.93097462352165	186	12.6002470931417	255	0
29	C4-Cz	474762	474826	64	35.8171003215953	22.574023034704	140.845418352308	2.5874616013639	151.714425657341	11.5019262103309	143	12.7337379761371	150	0
29	C4-Cz	475007	475055	48	32.5345395570197	22.9010740901688	121.090934146554	2.1213070914558	151.714425657341	2.93612257631647	178	16.0452452319874	227	0
29	C4-Cz	479287	479340	53	29.7548221154062	14.3576102585563	103.848525966699	4.29487369291057	125.736483868994	8.00511476287826	96	9.28845550792768	95	0
29	C4-Cz	494690	494737	47	39.8585231379869	18.9728818766651	163.480692544397	4.41342550191235	163.480692544397	3.74360428080676	109	19.9569911483272	200	0
29	C4-Cz	499979	500034	55	39.51815067385	16.7667472092191	152.572276773478	5.55514746934395	152.572276773478	3.86079150516312	171	18.7802574229655	206	0
29	C4-Cz	505424	505479	55	36.0679174378679	20.3545483587607	132.769290743726	3.13992440929379	149.469831344324	7.25365618582755	170	16.1831719063717	169	0
29	C4-Cz	510987	511044	57	30.5942241058106	20.251759784611	130.463569561761	2.28219816830779	146.307336188992	3.06348713992246	136	14.5623661437004	198	0
29	C4-Cz	520988	521029	41	36.1636673428604	18.3767483224396	126.75372649013	3.94393194762821	151.053017714316	2.42914094748614	129	18.8695389272591	208	0
29	C4-Cz	522011	522065	54	36.7010374315179	21.2019899386848	146.622520586028	3.31926478007964	167.145903739887	11.9095816758662	125	14.6275490320315	167	0
29	C4-Cz	522682	522762	80	35.3860014158111	19.2366654900734	152.499871932531	3.65677531184746	167.145903739887	4.72524078489073	151	14.7192816298181	237	0
29	C4-Cz	526350	526541	191	33.384872063015	21.734496147952	135.475197765267	2.47754571634091	172.678366136348	8.40243242375553	118	9.62551670997152	150	0
29	C4-Cz	526894	526957	63	33.9684895815762	25.4894691504889	132.91218149149	2.09425189043598	172.678366136348	9.23035132883242	130	9.6443970684781	154	0
29	C4-Cz	527615	527668	53	36.5152732014012	23.8686736549146	138.62626070463	2.55148369245462	161.908274799479	6.96922988754361	156	19.7627152340056	155	0
29	C4-Cz	527772	527823	51	38.1518646975498	23.7076488295513	133.711900859312	2.81643831366556	161.908274799479	4.02699400615851	161	15.1184708495519	222	0
29	C4-Cz	528355	528402	47	25.176954163339	23.0541450042944	83.1992605746251	1.31167044756605	161.908274799479	4.84006139196865	158	14.7337208264825	160	0
29	C4-Cz	532464	532513	49	40.9165243418311	28.5395043384341	151.755977240254	2.05543912223757	171.394864962378	6.47481637201496	187	20.1041889487826	186	0
29	C4-Cz	537125	537182	57	33.2217174161309	23.5482794937624	131.772602177349	2.13996427479117	172.79277142163	4.38781308029633	110	11.987415018367	128	0
29	C4-Cz	537525	537576	51	36.7233892437209	22.9587450745357	135.708593905742	2.74333383688705	172.79277142163	11.775048159799	129	12.5131481702844	166	0
29	C4-Cz	537667	537719	52	34.0844414383574	22.2224614035045	126.207838022705	2.57248665044532	172.79277142163	11.0490568001139	110	12.7544910611565	143	0
30	T5-P3	236599	236642	43	10.0740252635686	5.32236436013414	32.15650640809	3.58258799830272	36.5197451619927	2.19500280241703	176	5.09030398403091	175	0
32	T6-P4	3495	3614	119	4.90223815407567	2.1346651797584	18.2929200736207	5.27386828971604	18.2929200736207	0.544566948640668	92	0.567640330779129	109	1
32	T6-P4	10910	10976	66	4.39336246666662	2.9305385373645	14.9212357712474	3.1932604122906	19.912426098903	0.648923431520029	83	0.635572044184804	82	0
32	T6-P4	11201	11510	309	4.73862729521098	2.26415250288182	19.8690302899437	4.84451269505182	19.912426098903	0.777957595416554	83	0.479764712053123	82	1
32	T6-P4	25735	25814	79	4.56524984644068	1.8255971535389	15.9708360144305	6.25344308074785	15.9708360144305	0.340919793472998	NaN	2.86809833003736	300	1
32	T6-P4	28903	28971	68	4.63328663811914	2.83422041888124	15.9076348452819	3.13252286495206	32.1050860292553	0.553362024528119	83	0.891666242475041	82	0
32	T6-P4	29108	29220	112	5.26627258377596	2.68014494001395	20.3441228147129	4.15624283451904	32.1050860292553	0.528959335936217	102	0.523123046644991	101	1
32	T6-P4	31211	31260	49	7.81122439750558	1.97608924352476	35.6071152101953	15.6251832750721	38.7778670161069	1.65900722808033	102	1.72602892683578	101	1
32	T6-P4	39456	39558	102	4.1450957807077	1.82767718928117	13.4688908752104	5.14363517207207	14.0430861798552	0.605977805373315	83	2.61959531770003	82	1
32	T6-P4	45698	45765	67	9.74497263929352	1.82594593678105	40.6004218164242	28.4829796048065	40.6004218164242	1.3564779463053	260	1.53104511293941	300	0
32	T6-P4	47294	47403	109	5.40339724070132	2.42815625627025	22.2673417215396	4.95199880784637	22.2673417215396	0.519176253635467	105	0.533094605584861	104	1
32	T6-P4	62037	62113	76	4.24398789395681	1.72785645861789	16.1831370492957	6.03299480569138	16.1831370492957	0.460137050996804	NaN	2.6572225770737	300	1
32	T6-P4	75662	75817	155	4.96474864427917	1.76184011618402	19.260864555607	7.94075035957919	19.260864555607	0.504939004904147	84	0.543948848976312	102	1
32	T6-P4	91717	91781	64	4.9054915544867	2.0698848158299	19.1350855546087	5.61658980547458	19.9912884723688	0.576074823586091	123	0.569731078101061	122	1
32	T6-P4	117528	117613	85	5.69901069668569	2.17342355522454	21.8347851816687	6.87559370205025	21.8347851816687	0.67793848801512	103	0.683283999733565	103	1
32	T6-P4	144194	144294	100	7.17806894133271	2.11453734143981	28.1712294020451	11.523503352208	28.1712294020451	0.721012705401886	92	0.526778063304348	91	1
32	T6-P4	148214	148295	81	5.72386259179047	1.93344656665861	21.6755907834325	8.76423573341826	21.6755907834325	0.398221995798271	107	0.408599502940472	116	1
32	T6-P4	153608	153692	84	4.32182236846478	1.59006807163506	13.7201938012709	7.38758331412	13.7201938012709	0.398432567683893	114	2.66016608367543	113	1
32	T6-P4	157034	157282	248	5.94302429185596	2.14259007809798	31.3629923281609	7.69372806231187	31.3629923281609	0.74651863960597	96	0.497133887789474	95	1
32	T6-P4	178525	178783	258	4.61834029720552	1.87214976772714	17.2349520197032	6.08542176984344	17.2349520197032	0.448587405211428	85	0.50575405469399	84	1
32	T6-P4	186636	186712	76	4.79044572919082	2.23824603484988	17.1619196900628	4.58074589679561	18.7077606507612	0.513965722631776	85	0.604292420595034	84	1
32	T6-P4	193745	193814	69	4.87741502202531	2.12384805765716	18.7202194097986	5.27390783317303	18.7202194097986	0.599625483603648	83	0.701274217437226	82	1
32	T6-P4	200112	200182	70	3.97433165945615	1.75596431807162	15.434527830799	5.12267542216399	15.434527830799	0.494787560851738	116	0.457672928856668	115	1
32	T6-P4	230475	230565	90	3.96839076668657	1.58789209903726	13.7494553143284	6.24578291585076	13.7494553143284	0.56642222462151	87	2.47765773081025	86	1
32	T6-P4	238793	238872	79	4.20608009553796	2.08942192396326	13.3692305418266	4.05231113061894	17.6202172690619	0.595068808760246	83	0.369657803715507	82	1
32	T6-P4	245385	245484	99	5.81543649897384	2.03203115063114	22.6417388726995	8.19037738586232	26.3257414633119	0.581801040059842	83	0.476051496139617	82	1
32	T6-P4	261799	261919	120	5.57364140053892	1.71463666752323	20.9352075715221	10.5665651017885	20.9352075715221	0.586744981274745	110	0.502444198610935	109	1
32	T6-P4	270800	270867	67	4.75249188539021	2.07039871535805	15.9997125664228	5.26907995748135	17.6036757955243	0.585831041229687	124	2.71014064074693	123	1
32	T6-P4	273115	273240	125	5.23325417626657	1.84083883859052	19.520504536471	8.08187483368974	19.520504536471	0.510205887617259	105	0.999167030479487	104	1
32	T6-P4	326476	326551	75	4.9778435924015	2.06246264375243	16.2778840277719	5.82519289243705	20.2818000415863	0.250819776759406	NaN	4.67363022965866	300	1
32	T6-P4	328153	328225	72	4.15230302100172	1.88905316072444	16.346915378577	4.83158605488202	16.346915378577	0.502478456749316	101	0.635221069770218	118	1
32	T6-P4	336901	336991	90	3.72943894525554	1.70185307711602	12.6572926461916	4.80222909797862	12.6572926461916	0.25801949622026	109	0.235067909197974	108	1
32	T6-P4	338674	338804	130	5.16401514390925	1.91213728500665	17.4366046325997	7.29351490016211	17.4366046325997	0.539669347470439	86	0.639331620026278	111	1
32	T6-P4	420754	420863	109	5.46735635320911	1.75728455182376	21.5815382224892	9.67989352854709	21.5815382224892	0.48734980985472	108	0.477110430618652	107	1
32	T6-P4	461629	461716	87	4.88564264801746	1.74776180020645	20.8920515174016	7.81409901744497	20.8920515174016	1.21830832018495	83	2.7861097587077	82	1
32	T6-P4	464219	464318	99	7.17883134986614	2.4047485684582	28.0179910703937	9.62302190307033	28.0179910703937	1.15326354424079	83	4.07625204682815	82	1
32	T6-P4	464775	464862	87	3.88178962979021	2.74951433115756	14.5565596776591	2.87271484528167	28.0179910703937	0.520322852604604	86	0.617233926855775	116	0
32	T6-P4	469545	469691	146	4.74554226797855	1.85637101879583	17.9110684207534	6.53494794522024	17.9110684207534	0.652648800203967	106	0.474570676551688	105	1
32	T6-P4	475840	475915	75	3.76437192182826	1.66672521723413	13.1725332064016	5.10102014026161	13.6059623874749	0.591633165069313	88	0.611579394830381	91	1
32	T6-P4	511545	511621	76	4.38154603618078	2.05592785097196	15.4213654377196	4.54191517008255	15.4213654377196	0.357463206491785	83	0.522299367128925	82	1
32	T6-P4	514437	514540	103	12.0649095492052	1.84291357836992	73.7820724261898	42.8586217562871	73.7820724261898	1.00714342236523	NaN	8.64293251295703	300	0
32	T6-P4	515589	515692	103	4.26433866821529	1.76442957620487	18.2402686067292	5.84110104224092	18.2402686067292	0.717802565222324	83	2.69159689152599	82	1
32	T6-P4	541613	541734	121	5.31341277480281	2.28562595835514	20.5464564498232	5.40426692807294	31.3273810908327	0.698241374374964	83	0.49640069393706	82	1
32	T6-P4	553236	553333	97	4.87167323288019	2.33916453449142	18.4744630026076	4.33745277373175	23.5627799895959	1.01609039303877	83	2.93894493841755	82	1
32	T6-P4	564595	564683	88	4.77058432530509	1.96997748944833	18.8079477124319	5.86436005081191	18.8079477124319	0.560325787013421	83	0.468974421189092	82	1
32	T6-P4	591597	591702	105	4.48748318783803	1.81082477303108	15.3001306199208	6.14119396647578	15.3001306199208	0.360403770202078	110	2.91549649471054	109	1
33	P4-Pz	11234	11298	64	5.16504483763449	1.69057367491091	17.5448312716567	9.33426202545384	18.3466126163613	0.959540391656212	83	0.83781395983059	82	1
33	P4-Pz	31210	31266	56	7.16640530132622	1.55463379450086	35.2367238473414	21.2493927927016	35.2367238473414	2.13116571590035	87	1.57721146249452	86	1
36	O1-O2	412711	412791	80	3.81420617840344	1.62815764713893	13.5646138665594	5.48801669532974	13.5646138665594	0.549787275086765	115	0.599677141687288	114	1
37	F7-C3	243756	243846	90	4.20105673405836	1.70840243283965	13.7756064205862	6.04695491753785	13.7756064205862	0.838959509798746	83	2.44300613148319	82	1
37	F7-C3	251450	251534	84	3.48743609360758	1.72505519311023	11.3782265132809	4.08701777274664	12.126773254443	0.310620352137235	83	0.384958223795602	82	1
38	C3-Fz	167466	167570	104	9.70232772262993	1.68555413109328	64.7620880175627	33.1334356959062	64.7620880175627	1.19373218268638	NaN	5.70998072350128	300	0
38	C3-Fz	234572	234673	101	8.98184295536883	1.50448251819601	56.9881477264517	35.6415533316618	56.9881477264517	1.25007464543191	NaN	6.23108009464424	300	0
38	C3-Fz	375225	375274	49	2.2676799142763	1.46988330167602	6.69738237902103	2.38011419403502	10.1354667256912	0.497314631606749	164	1.45041454169448	177	0
40	C4-Fz	167481	167569	88	10.6077639057448	1.94628374917227	65.5136363530898	29.7053981337518	65.5136363530898	1.48385143818379	NaN	6.43231316915846	300	0
43	T6-C4	3508	3593	85	6.18652899653774	2.21905596011869	26.4297108725178	7.77244391383109	26.4297108725178	0.948017665804459	114	1.24714316180494	113	1
43	T6-C4	25746	25818	72	4.49805199474632	2.15076567395008	14.1008050061135	4.37383856483948	15.4011650591619	0.469039707443307	112	0.490910585263611	111	1
43	T6-C4	29159	29219	60	5.97904530724636	3.06699553496691	21.6385909420028	3.80047081065774	35.4125634199781	0.759778314051437	86	0.692795744444561	85	0
43	T6-C4	45698	45766	68	9.09524786219336	2.18599515135988	38.8972831155151	17.31134011842	38.8972831155151	1.4620382427925	98	1.76511645287309	122	0
43	T6-C4	47287	47379	92	5.37167460662158	2.60428088368943	19.7779780816301	4.54247587903727	19.7779780816301	0.511105033367624	NaN	3.99790944731249	300	1
43	T6-C4	48292	48359	67	4.35895620764331	2.44257405058034	17.9446912562239	3.90506656785929	19.8475980167066	0.874906352795745	95	0.990835746166895	94	0
43	T6-C4	144199	144307	108	7.94322225821948	2.41766220620887	32.5678648543892	10.7944914412771	32.5678648543892	0.31494732188463	NaN	5.88432347852508	300	1
43	T6-C4	148204	148290	86	6.26254504493746	2.29573271984949	24.6252112794048	7.44147585996691	24.6252112794048	0.677008715726087	114	0.855927590427586	113	1
43	T6-C4	157142	157278	136	7.30876488610214	2.63152810538932	30.2392689089319	7.71386363682219	30.2392689089319	0.764272135541992	100	0.833018088524169	99	1
43	T6-C4	178637	178798	161	4.93414057850171	2.27129641578035	18.9378141617014	4.71927631851511	19.587601109165	0.519346108855024	106	0.527388069088446	105	1
43	T6-C4	245410	245496	86	5.94237448486112	2.14805147305059	23.1951717152112	7.6529815548443	23.1951717152112	0.687416984989592	83	0.608824554434874	82	1
43	T6-C4	270802	270867	65	5.65838139168043	2.14644127659157	18.9600675741285	6.94938561613435	18.9600675741285	0.495530854626916	122	3.22364417549461	121	1
43	T6-C4	273098	273202	104	7.0343664594585	2.27218181799498	25.0698254821472	9.58437545341389	25.0698254821472	0.740975099813093	104	0.846506836763211	103	1
43	T6-C4	326475	326550	75	5.06848166164424	2.29667273087757	18.750541946733	4.87032038240931	20.5274848125297	0.407888312169576	223	0.656681126601381	300	1
43	T6-C4	338694	338781	87	4.60229465218347	2.36798131865265	15.3998049841828	3.77739408837559	15.8592320815871	0.284136218537048	94	0.58702712819477	114	0
43	T6-C4	389676	389749	73	4.78674303596574	2.25354923551134	17.7057592436655	4.51176142025644	17.7057592436655	0.347515741766337	181	0.503992023648234	300	1
43	T6-C4	412767	412855	88	4.9652962116854	2.31351782398371	17.6338132948458	4.60621944706905	17.6338132948458	0.455841296867728	83	0.497380808090213	100	1
43	T6-C4	464218	464316	98	7.00910926938596	2.57324146700838	28.0309804351977	7.41932812408776	28.0309804351977	0.954375583921512	83	4.04045692798641	82	1
43	T6-C4	469547	469640	93	4.86246175036082	2.14989795386771	17.906872215955	5.1153658917605	17.906872215955	0.579134287479388	105	0.870132523966951	104	1
43	T6-C4	514439	514545	106	12.7794029355924	2.02158110031155	74.2764360613341	39.961224724143	74.2764360613341	2.64984445723118	83	0.998284222938393	82	0
