nChannel	strChannelName	indStart	indStop	indDuration	Event_RMS	Window_RMS	EventPeak2Peak	SNR	Amplpp	PowerTrough	Ftrough	PowmaxFR	fmax_FR	EvPassRejection
1	Fp1-Fp2	44202	44259	57	7.44018631346091	5.09631342254545	23.98642255536	2.13135289761687	35.5558418895348	1.37929148119732	185	3.52163504247508	184	0
2	Fp1-F7	25520	25573	53	5.13799282166804	2.38003108449789	17.5095448696586	4.66038427198876	17.834189828337	0.594717418507765	110	0.694331268745544	118	1
4	T3-T5	251052	251121	69	3.45919913116216	1.58792496441684	11.8838451663072	4.74560048151545	11.8838451663072	0.292814609158338	120	2.09583817505944	119	1
4	T3-T5	336580	336653	73	4.52368128422927	1.76761776184657	16.0681727682125	6.54948700004322	16.0681727682125	0.647016759340927	83	2.93938235805205	82	1
5	T5-O1	432058	432161	103	3.98587610454351	1.7472215713366	14.462381428477	5.20417179316948	14.462381428477	0.579354317875639	83	0.64671140063747	87	1
6	Fp2-F8	3866	3925	59	9.81504998133408	5.92030136767638	35.4321427238235	2.74851050806108	36.7025494940176	1.78978923530288	152	5.08607343455983	151	0
6	Fp2-F8	75947	75989	42	8.42488409178786	5.14742746438234	25.9929405242597	2.67884384466172	34.1212189194763	0.432328497381103	157	4.24243161184498	194	0
7	F8-T4	534172	534248	76	15.8816853387162	3.12449808438327	87.0595091067845	25.8364386190789	87.0595091067845	3.88298653084535	75	3.06885074172477	82	0
8	T4-T6	17066	17165	99	4.92328608509214	2.01991570635359	17.2720643706675	5.94078250787654	17.2720643706675	0.338999132962298	207	0.530417948667174	300	1
8	T4-T6	19871	19971	100	7.23091323677735	2.14837825284853	27.1910525632443	11.3283016765468	27.1910525632443	0.831639786122727	110	0.866248379900776	109	1
8	T4-T6	37734	37804	70	5.37063069525675	2.50875042918372	17.9349435071873	4.5828501801823	21.4528628531013	0.45202583346497	93	0.503845548097272	114	1
8	T4-T6	60051	60151	100	18.7668692332626	2.58825617801438	119.620010924672	52.5737719647873	119.620010924672	1.80684492519613	NaN	11.7913216690246	300	0
8	T4-T6	79053	79127	74	4.38955794540677	2.24784068612528	15.7277195330516	3.81338380091672	15.7277195330516	0.21006630468109	NaN	6.43384251304261	300	0
8	T4-T6	171154	171483	329	5.76920726328721	2.38064335504165	23.9539151666259	5.87277829883494	23.9539151666259	0.62115360340636	111	0.610328951907442	110	1
8	T4-T6	176574	176636	62	4.5236176961087	2.49430639913981	16.6948824100312	3.28906295954781	17.4500436311969	0.363095724799841	200	0.680363096315259	300	0
8	T4-T6	199032	199124	92	5.23809006963596	2.08164604083026	18.8423866010323	6.33187239655558	18.8423866010323	0.321565457519393	NaN	2.95165236055313	300	1
8	T4-T6	323862	323981	119	5.71873845175309	2.39486442533807	21.7024166548889	5.70214954880224	22.43466032097	0.464985185743197	108	3.65599760017262	107	1
8	T4-T6	336352	336450	98	5.97470803615484	2.67080703386801	22.6345167499409	5.00435779341622	22.6345167499409	0.822504783003641	73	0.656618872042358	89	1
8	T4-T6	345467	345575	108	4.98608903831463	2.55518073529076	17.950458611031	3.80782350409002	18.1935662391328	0.718740368325304	86	0.582315325373743	85	0
8	T4-T6	425751	425826	75	6.89025626623379	2.73353134334615	26.7402753740148	8.50724068233023	26.7402753740148	0.932367275742229	86	3.50401837973063	85	1
8	T4-T6	425954	426043	89	6.90041331793598	2.68185664862963	21.7266956252491	8.50109829876794	26.7402753740148	0.539367779113755	97	0.685048396678132	110	1
8	T4-T6	432213	432295	82	5.49837125666496	2.25622935134362	19.6463334816215	5.93884009356752	19.6463334816215	0.423285306392581	108	0.713584640463009	107	1
8	T4-T6	437575	437687	112	5.76573318884772	2.11159610152097	26.1372029547932	7.45568206100863	26.1372029547932	0.747576467246679	92	4.16080940656284	91	1
8	T4-T6	488696	488789	93	4.74958135234052	2.06676581560648	16.7936616117932	5.28114537129493	16.7936616117932	0.712234042197761	106	0.817568038838549	105	1
8	T4-T6	527318	527375	57	4.90468222876959	2.07738304940049	16.3035650423998	5.57427746917028	16.3035650423998	1.37972759936787	83	2.8366858781171	82	1
8	T4-T6	534150	534248	98	15.0560661890075	1.8861897313009	95.1551627167832	63.7165537979696	95.1551627167832	1.61565366789107	NaN	10.4554083533664	300	0
8	T4-T6	551881	551968	87	5.04030716628436	2.02822917894046	19.2569799678711	6.17561132993303	19.2569799678711	0.519751030972925	83	0.618522642312204	82	1
9	T6-O2	5678	5894	216	4.33528019464556	1.74743740525858	18.0844441369292	6.1550429482476	18.0844441369292	0.778119497920346	83	2.59487428620367	82	1
9	T6-O2	7400	7488	88	4.40148984764341	1.66183202270516	14.8148087275217	7.01495940595749	15.9091518279719	0.220131874213166	NaN	3.20524281791825	300	1
9	T6-O2	19849	19979	130	7.64139343627542	1.79905011465061	32.4510771581475	18.040916623012	32.4510771581475	1.41981637632822	83	4.40796316641676	82	1
9	T6-O2	37628	37814	186	4.68314846733487	2.05979425648526	20.5209302795251	5.16925750260574	20.5209302795251	0.668213081251918	83	0.711125400672413	82	1
9	T6-O2	55385	55463	78	3.85821391581879	1.97178408951922	16.0238509380658	3.82872249884831	16.6421080087615	0.628319248572036	113	0.58922300461218	112	0
9	T6-O2	60017	60180	163	15.1428953967107	1.63366673321665	119.773909746423	85.9193363350523	119.773909746423	2.8685901003825	83	6.12527001592885	82	0
9	T6-O2	64768	64858	90	5.17748335764684	2.19312098359398	21.1853032066622	7.53029740679195	21.1853032066622	0.595987753576482	88	3.30915963787269	87	1
9	T6-O2	64974	65099	125	4.83743567568264	2.1304682359041	18.2495466373756	6.72933329968757	21.1853032066622	0.683289677597302	88	0.565293260712453	87	1
9	T6-O2	79022	79095	73	3.77805775287607	1.85195618783951	13.2055069095653	5.10153964087942	16.6821512271113	0.42312348851645	77	0.519910844046028	92	1
9	T6-O2	79737	79810	73	4.45803518284692	1.81491947840345	16.6821512271113	6.91977070310262	16.6821512271113	0.51352072544798	83	0.640244066565218	82	1
9	T6-O2	94584	94655	71	4.0199368632016	1.41975527585558	14.6730869961174	8.01699258414946	14.6730869961174	0.526997065130464	108	0.713604798295779	115	1
9	T6-O2	130218	130298	80	3.96682099508118	1.92352300233604	14.3257922013889	4.25295157695496	14.4039736479967	0.379108298382692	NaN	3.80690202593972	300	1
9	T6-O2	142660	142723	63	4.19567454553384	1.98170224981203	14.970627795272	5.58831703638996	18.1219559573468	0.620071473860487	83	0.515654165281271	82	1
9	T6-O2	142858	142927	69	5.03504814657481	1.90298664737938	18.1219559573468	8.02489601459334	18.1219559573468	0.281466256514029	NaN	4.9707588913573	300	1
9	T6-O2	170809	170902	93	4.10441291362119	2.67092669259099	14.2213639595406	5.19008712135948	22.8345535917133	0.414851219083602	85	0.477743707313157	111	1
9	T6-O2	171154	171484	330	5.17091203722812	1.90326905647138	22.8345535917133	9.00200542651211	22.8345535917133	0.721234840433107	83	0.430750169905819	82	1
9	T6-O2	189448	189507	59	3.47528188773982	2.34378247637501	12.1810429501281	2.40309692186198	22.6833483361617	0.698493254604468	83	0.507767266983858	82	0
9	T6-O2	190346	190427	81	4.05310574591882	2.20844258581495	13.0970665248846	3.52939544878538	22.6833483361617	0.567934601485	83	0.396124075057537	82	0
9	T6-O2	282774	282922	148	4.42181567446055	1.62810862315718	17.2803284873547	7.37623113049921	17.2803284873547	0.477306810551745	83	0.44229292060235	103	1
9	T6-O2	295803	295898	95	5.41870296741654	1.6672437457532	21.3497076422544	10.5631268877489	21.3497076422544	0.585832134554664	115	0.458052029316023	114	1
9	T6-O2	323869	323972	103	4.60866475322795	1.85565947495555	18.882977860937	6.16813212683755	21.209680483013	0.363378960696672	219	0.492571446539764	300	1
9	T6-O2	328839	328913	74	7.5428300351044	1.97084780986188	31.3503548043477	14.6474648780837	31.3503548043477	0.592484997231315	113	4.53043285130416	112	1
9	T6-O2	336349	336430	81	5.90807185763304	2.27466209234139	23.0480197730209	6.74617740204593	23.0480197730209	0.760410007388252	107	0.466866698757714	106	1
9	T6-O2	345469	345572	103	5.16232280199284	2.30309142174119	20.7373486349863	5.02421203928557	25.5095595540592	0.551160121431124	101	0.316363274518206	100	1
9	T6-O2	346674	346763	89	5.55269198903484	2.18808234499176	22.7219287494143	6.43991067138038	22.7219287494143	0.755637730036044	94	0.465584755593002	93	1
9	T6-O2	382450	382532	82	4.81475720596634	1.89569934871868	19.9217679462765	6.450744813574	19.9217679462765	0.509916856691112	109	2.8654799210105	108	1
9	T6-O2	386024	386102	78	5.63527587721867	1.92418010871169	19.6723929530472	8.5770693647652	19.6723929530472	0.468921338507559	118	3.32170689722479	117	1
9	T6-O2	388508	388580	72	4.23488635756432	1.84728596894652	15.188965242894	5.25551473521245	15.188965242894	0.331567512821607	102	0.456443402124477	102	1
9	T6-O2	399224	399336	112	4.80191285186676	1.89700079319512	18.9095576015906	6.40757241314194	18.9095576015906	0.398654135779896	113	2.78722653666252	112	1
9	T6-O2	407763	407853	90	4.43152973221747	2.44603591839859	16.4717040162285	4.20147313294705	24.7970062400519	0.431531369004107	96	0.526399294411118	95	1
9	T6-O2	408036	408140	104	5.44111856333009	2.25230204520491	23.8904146735859	6.76156504496058	24.7970062400519	0.55896817916518	96	0.449091823901809	95	1
9	T6-O2	424597	424672	75	3.61656747926879	1.93280491207736	12.4262605758649	3.50120148612918	13.8174381218974	0.598568750292319	83	2.01488511825694	82	0
9	T6-O2	425749	425834	85	7.13041567479195	2.19402599860438	29.7721570028836	15.6164202062416	29.7721570028836	1.28869746371452	87	0.475980864807909	86	1
9	T6-O2	425956	426044	88	6.18606860888073	2.29537647001541	20.4588767915742	11.8805539357319	29.7721570028836	0.976505308102787	83	0.504057194916493	82	1
9	T6-O2	470625	470708	83	4.63661199168037	1.41285700683855	17.8118464551372	10.7697367722011	17.8118464551372	0.592332885032402	83	3.3399154205911	82	1
9	T6-O2	475009	475085	76	4.01883144290346	1.71434093061448	13.0414538394364	5.49547446825432	13.0447396007496	0.319748798164108	101	0.572698721609559	100	1
9	T6-O2	505976	506060	84	5.42613778546479	2.25408456984403	17.6219388980345	6.71968144754311	20.4722211984404	0.32405346230205	107	0.430302830327594	106	1
9	T6-O2	506199	506275	76	4.74816901554956	2.33763680336935	19.1377957476442	5.12362140969536	20.4722211984404	0.779813709981761	83	2.62199609222801	82	1
9	T6-O2	527279	527357	78	3.51746707159156	1.69290914680362	12.361088203933	4.31710665436481	16.5146036825269	0.877081047848679	83	0.381499635231507	82	1
9	T6-O2	531964	532061	97	3.43295129737931	1.93756015491518	12.5072081478669	3.13924271295054	17.8039844628865	0.390535432087712	83	0.379501101618858	82	0
9	T6-O2	561619	561741	122	4.41548789093845	1.71467506353731	16.5025328469807	6.63122451605766	16.5025328469807	0.546696863565063	106	0.382453440064956	105	1
9	T6-O2	582059	582137	78	9.92994871121815	1.51853580536372	55.8468912443487	42.7606144892795	55.8468912443487	2.53917910664933	83	6.51305518328645	82	0
9	T6-O2	592256	592337	81	3.75379908094613	1.74799220028445	11.7001057723434	5.83736004365942	15.9577266244084	0.239865251808953	92	0.327286617964923	110	1
9	T6-O2	592487	592579	92	4.02623049686973	1.71004653195493	14.2706508363119	6.62506533582103	15.9577266244084	0.477439765106177	92	0.531555653131934	91	1
14	Fp2-F4	109033	109073	40	7.53112826036299	5.06096903828601	23.6384244627778	2.21438294136496	34.6888005207529	2.1547508920982	163	2.27587110258116	184	0
16	C4-P4	219966	220017	51	4.52084117760357	1.88606182612206	15.5213962306044	5.74548440241902	21.3382621436295	0.518855418798185	111	0.605922695441718	113	1
16	C4-P4	532491	532625	134	13.9579634924569	2.05290132537237	88.8131785375923	46.2283045744293	88.8131785375923	0.925272032356751	NaN	10.343844068022	300	0
16	C4-P4	599950	600002	52	18.2683542000652	1.8430267724198	83.9632606287833	98.2506786609977	83.9632606287833	2.11173783766745	83	1.76417427948326	82	0
17	P4-O2	37979	38061	82	3.35598485076094	1.96129464549111	11.8465766017432	2.9278869103458	14.72895258993	0.424756355071614	87	0.459671947259738	110	0
17	P4-O2	304876	304961	85	4.72255428691018	1.56447309197524	18.4455354086844	9.11208415467394	18.4455354086844	0.25870896521093	112	0.617763884143481	114	1
17	P4-O2	432242	432355	113	3.72591971106217	1.63480819112936	14.0047506065482	5.19437589154985	14.0047506065482	0.321583517626719	115	0.515732301822614	114	1
17	P4-O2	532500	532623	123	13.7601066279365	1.75322153819165	85.2938738091482	61.5984811805084	85.2938738091482	0.833944313253804	NaN	10.9734597044395	300	0
18	Fz-Cz	16396	16451	55	20.3785715865954	9.5318639056839	89.7294634352638	4.57079572816218	92.3110865658399	3.12772270620138	195	7.8291137270343	194	0
18	Fz-Cz	22421	22579	158	16.4176097226201	8.2463628160848	75.8365524624971	3.96364707496253	77.7674806896923	5.10899904257246	161	7.3156101387418	185	0
18	Fz-Cz	32826	32867	41	16.9311452359894	7.14546716056688	65.244803430796	5.61450425125203	65.244803430796	2.29669219322939	66	5.76698877291808	85	0
18	Fz-Cz	84788	84845	57	15.1005361178809	7.58999311370713	62.6981381774184	3.95823859522287	63.3077965923911	3.75344074651901	149	4.59055060339417	176	0
18	Fz-Cz	102438	102483	45	13.3708607335624	9.73686676429939	41.5578665915031	1.88573332508523	88.2647407898563	2.92263843334644	170	2.95231652621248	180	0
18	Fz-Cz	103787	103871	84	18.0263127441657	8.77631294927277	64.2525664902573	4.21880644532492	70.4424360166446	3.14652772536757	163	9.69955921997127	163	0
18	Fz-Cz	137993	138164	171	25.9364541626546	14.323372188676	116.554782177176	3.610455102676	125.659271909133	5.22617086888493	186	5.33948910274171	185	0
18	Fz-Cz	138313	138401	88	21.280066251263	15.5353693941369	89.4466595544548	2.34238685003011	125.659271909133	4.49620843006868	339	9.62318102928029	206	0
18	Fz-Cz	138888	138939	51	21.3246013252575	15.7611941663067	84.8001553748718	2.32023609743272	125.659271909133	4.83877450850363	161	11.0002238715753	160	0
18	Fz-Cz	142265	142625	360	26.9973646636173	21.0201913180627	165.535707579296	3.56498608815617	168.555531089165	8.68403212726529	149	8.71865074406138	164	0
18	Fz-Cz	142844	143015	171	29.3691537758593	24.8513078149629	147.369688185128	2.27751216248616	168.555531089165	9.83166704914398	129	10.5251526839359	180	0
18	Fz-Cz	143120	143554	434	32.1827171181395	23.1607606040129	156.224911326006	2.70549833246697	168.555531089165	8.62419841405865	152	8.44525819377979	151	0
18	Fz-Cz	143702	143758	56	30.655487795838	24.1327425560582	135.00475433413	2.66343025944919	166.004269051252	4.22905116836126	182	14.4644459715905	231	0
18	Fz-Cz	143918	144129	211	26.5267375006559	21.6136991325096	122.604090126464	2.77505538264865	156.224911326006	7.04581141011259	93	9.44879922675314	132	0
18	Fz-Cz	147413	147469	56	30.150057135758	11.5323444753165	112.780963143539	7.00418917067286	117.304813696997	5.72831843396717	167	16.8762175037114	166	0
18	Fz-Cz	148443	148496	53	21.5799244664903	12.1698029278089	75.2033584645658	3.41740414229309	112.088422721572	4.78773021010099	134	6.07713408244222	133	0
18	Fz-Cz	361982	362050	68	16.9902249058698	8.00276333291134	64.4904649922259	4.50731913064658	64.5764475577728	5.02890334794141	174	7.93139655609096	173	0
18	Fz-Cz	427912	427967	55	17.3819815531877	9.08143966853306	60.1502815821359	3.66344069279812	78.0677405535016	0.740402363937616	150	8.88194130357864	196	0
18	Fz-Cz	434045	434479	434	27.5595320940658	21.2285184581491	162.314190570897	2.33130831981356	179.285369378216	9.6727921137021	164	9.76303694008418	183	0
18	Fz-Cz	434560	434699	139	36.0547773982328	22.5727103952859	179.285369378216	3.44944356951367	179.285369378216	9.33661957739177	62	11.3907695240705	108	0
18	Fz-Cz	434860	434935	75	33.2470875218792	23.5486976120281	146.660560887909	2.83336081122929	179.285369378216	6.39796718063367	97	11.429227023094	111	0
18	Fz-Cz	435113	435165	52	18.2270601871413	23.433659965721	65.1503288504456	0.90818201413847	179.285369378216	5.83543817948578	61	8.47617746919138	92	0
18	Fz-Cz	435249	435402	153	25.9761675462535	21.2011356590159	135.726378647815	2.17040927452771	179.285369378216	4.2845424697887	137	11.5077533990741	200	0
18	Fz-Cz	480761	480809	48	11.7802803101357	7.86397501942068	39.2729166950539	2.24402142254676	59.7443518459826	2.00503774829347	171	6.71488599475094	170	0
19	Cz-Pz	16394	16451	57	19.7281916989738	9.43126800991943	88.5621504663993	4.37556747813807	88.5621504663993	3.19857003396938	130	7.81718951054184	202	0
19	Cz-Pz	22421	22578	157	16.8304083170478	8.32315704510765	78.5734924136719	4.08896248836868	83.0566290500909	5.03366180885517	162	7.61681993194308	185	0
19	Cz-Pz	32826	32866	40	17.2022950976588	7.1835839255668	65.5451009096005	5.73443252728264	65.5451009096005	2.27881719420585	67	5.84419251362442	84	0
19	Cz-Pz	47528	47582	54	17.0892738054996	9.75479799617687	62.0321012012405	3.06909728824487	78.2613859245885	5.01859050441124	106	5.57471771417691	113	0
19	Cz-Pz	74242	74308	66	12.2819812559557	8.39777459819843	40.9008729930582	2.13898841842851	64.4994008208858	2.28652240883991	122	1.86675337848783	121	0
19	Cz-Pz	84786	84845	59	15.5213623676927	7.59479778469603	66.7029308930616	4.17664195178203	66.7029308930616	3.96841966809835	149	4.85102243361972	176	0
19	Cz-Pz	103787	103871	84	17.2469915015201	8.78380597559269	61.3388199855852	3.85532709455758	70.3671940180308	3.04158472678469	164	9.44860259564202	163	0
19	Cz-Pz	137993	138165	172	25.6762172583492	14.3058828217873	114.604416827442	3.38097646906792	124.961387739402	7.62036701595393	126	5.294448883235	125	0
19	Cz-Pz	138313	138364	51	22.0748813444669	15.6698061704178	91.6779788714897	2.38497604190015	124.961387739402	6.00183442333613	79	8.00676441647362	104	0
19	Cz-Pz	139036	139077	41	17.1266334075937	15.1658285306957	59.7429905256387	1.45955910749406	124.961387739402	3.23009778344714	181	8.70771310635147	180	0
19	Cz-Pz	142265	142626	361	26.6399246715133	20.9147741375827	163.528583007879	3.2963677887032	167.053468623462	8.53814591051705	150	8.57134872555952	162	0
19	Cz-Pz	142796	143015	219	30.1700604227458	24.181146749073	148.815213796791	2.77319336256812	167.053468623462	9.35124211824462	132	10.732802914343	177	0
19	Cz-Pz	143119	143270	151	33.8757354438603	25.6230575912585	149.106800184531	2.5495575875329	167.053468623462	8.38227963518911	159	15.8606690296972	163	0
19	Cz-Pz	143350	143554	204	30.7477712675714	24.4812208629678	127.559820833783	2.56135991762668	167.053468623462	5.74682275731723	144	11.5938648591504	195	0
19	Cz-Pz	143701	144129	428	26.8480684777128	21.6794782424005	146.461513847281	2.76099037391041	166.569658216566	7.85521161776187	110	9.25252344197023	137	0
19	Cz-Pz	147413	147569	156	24.8281356048919	11.22203775363	114.143419896307	4.89491062539319	116.636392883122	6.54073206747109	128	8.20274905257018	164	0
19	Cz-Pz	164894	164946	52	14.6093162673564	8.48493724941908	47.8040854322159	2.96457547979434	78.1506818713834	2.28372846292292	158	8.2945022379611	157	0
19	Cz-Pz	427012	427057	45	17.3329076807376	9.14253296259843	67.7040566284557	3.85502585214173	78.8793709865458	4.49390053306248	146	8.81357044678342	148	0
19	Cz-Pz	427913	427968	55	16.7289866912611	9.26065217207874	57.7454553567226	3.46763407560262	78.8793709865458	0.914658906035145	150	8.67440004147259	196	0
19	Cz-Pz	433312	433362	50	13.9501074793207	14.6872264066924	51.2223704025417	1.53390411813726	162.553777703047	3.31575825069004	132	3.68418586031095	142	0
19	Cz-Pz	434110	434479	369	26.496979108661	21.9131965466792	157.572883569589	1.90508948709453	180.460808078274	8.97398857057026	188	10.7062155243384	187	0
19	Cz-Pz	434559	434743	184	36.4429341208926	21.7670398999118	180.460808078274	3.40394365391506	180.460808078274	10.0452884275724	61	11.4831486336044	106	0
19	Cz-Pz	434860	434935	75	33.0208794415049	23.4245406095248	145.507735750237	2.65065848527303	180.460808078274	6.39691278445817	96	11.5500363708537	110	0
19	Cz-Pz	435113	435165	52	19.0994177134278	23.2235811453933	67.9439379376947	1.0203901499532	180.460808078274	6.10464790088714	61	8.76736491349095	93	0
19	Cz-Pz	475208	475255	47	15.1950236449909	8.40850118822253	56.0926082515187	3.26561949987986	85.2117901373127	0.572403625913249	137	7.64615292828763	193	0
21	Fp2-Fz	3868	3924	56	8.03554723399704	5.09752285789782	26.4347566197478	2.48492080821536	31.0038645696403	1.61501833617885	151	1.61278898280517	150	0
21	Fp2-Fz	7802	7848	46	8.91517339067267	4.65296749984908	28.5901487976486	3.67112819445596	34.8197023239872	1.18188995870738	117	3.87141277849166	142	0
21	Fp2-Fz	47337	47388	51	7.78122195764189	4.51859651768865	26.6242681113954	2.96543548910566	30.0039865210342	0.756894666717956	145	1.2348366284367	149	0
21	Fp2-Fz	64781	64822	41	8.71038610686863	4.92926545332454	29.3972573549158	3.12255717871347	36.6316311500946	2.11574370374808	185	3.92692994889504	184	0
21	Fp2-Fz	70247	70303	56	6.96037392586925	4.78579184415313	21.471782146371	2.11522968349288	31.3167446199441	0.857961660124546	135	4.15846736156051	204	0
21	Fp2-Fz	76105	76167	62	7.68912116286116	4.31021517534681	24.4303208283985	3.18240542135717	28.127955018288	1.99356349810249	160	3.13131998933785	159	0
21	Fp2-Fz	109033	109114	81	6.75422842461638	4.73303840613191	21.6042923786411	2.03643911993063	31.651681349065	1.78447692935314	165	3.32024279731912	181	0
21	Fp2-Fz	541610	541651	41	6.56907770640951	4.32620700476505	20.6242368023474	2.30565437717201	30.768040078343	0.33606872216488	188	3.74599969911234	208	0
22	F7-F3	118055	118127	72	4.87347189986027	3.08065530222359	16.0929279557063	2.50259583733555	20.5383357834444	0.959992307837131	90	2.74258818475562	89	0
22	F7-F3	247774	247848	74	5.84359611722826	2.78608106335095	19.6997681319914	4.39919169526143	21.0077077189782	0.477642399582828	109	0.514354234950648	108	1
22	F7-F3	417351	417404	53	5.03714978048812	2.93109635618397	16.8046485754022	2.95331341824626	19.9659703771271	2.2621252556367	85	2.65482502006195	84	0
25	F4-Fz	20818	20883	65	3.91882587569694	2.00253038984206	12.357431642909	3.82960254351827	13.3700076639209	0.412565354388438	115	2.51964412311461	114	0
27	C3-Cz	16394	16451	57	19.7663968501064	9.50791718906978	88.6603684697507	4.32199479862072	89.3368310145179	6.79143054961071	153	7.59108327469046	191	0
27	C3-Cz	22421	22578	157	16.6019283635741	8.23351673217586	74.9924094939493	4.06580294699741	79.3864342525778	5.08280651229906	161	7.57314950809378	185	0
27	C3-Cz	32826	32866	40	17.2273667601238	7.17444801189063	66.0668613842064	5.76581645876553	66.0668613842064	2.25538566581953	66	6.17990572217306	85	0
27	C3-Cz	108111	108175	64	13.3265456782197	8.78102946582894	43.2485828169397	2.30326716010385	64.2086108612981	2.00362582018007	150	7.12301219426139	149	0
27	C3-Cz	137993	138165	172	26.0532504758972	14.2850998789239	119.3068634064	3.43477837589817	125.17844290368	7.81885179437757	126	5.18107202236739	125	0
27	C3-Cz	138888	138940	52	20.9973685279177	15.8113480559151	84.9646311497168	2.10551076068756	125.17844290368	4.50593345050903	161	11.0919538634765	160	0
27	C3-Cz	142266	142625	359	26.5824947520869	20.9495318250761	162.990599524722	2.93707264184371	165.775807773685	8.44643460083575	148	8.54184620017496	162	0
27	C3-Cz	142845	143015	170	29.4495326942254	24.681484650243	146.157323903897	2.30762364515706	165.775807773685	9.74905477285515	131	10.5670056236934	180	0
27	C3-Cz	143119	143270	151	34.0172657888509	25.5690673916755	152.063911486737	2.41765414695057	165.775807773685	8.39523332796081	158	15.893706830704	163	0
27	C3-Cz	143351	143554	203	31.2471813447693	24.4060308006272	130.043762375685	2.44882027077495	165.775807773685	5.94491533066384	145	11.8350808108826	195	0
27	C3-Cz	143702	144129	427	26.6976612276335	21.7043819914749	145.406110835715	2.5070331741272	163.193950231218	7.76392602408885	110	9.1515127244846	137	0
27	C3-Cz	147421	147469	48	32.1853146328749	11.5469584273457	111.648980620301	7.7692717732268	117.374107259604	5.17705632757254	167	17.9282171589113	166	0
27	C3-Cz	427912	427968	56	16.9893522994777	9.1833940276414	59.4248515898624	3.42252955219465	75.6855573691834	0.958667128476857	149	8.63227033237423	196	0
27	C3-Cz	432001	432065	64	16.5607116915264	8.05158457199264	62.4300823370115	4.23053483055037	70.5786854967645	3.5488223257269	155	8.34665726285915	154	0
27	C3-Cz	434045	434698	653	28.7370771359422	18.6932822338702	179.250790347243	3.05409311166848	179.250790347243	8.97418838782675	182	10.5318336117139	181	0
27	C3-Cz	434860	434935	75	33.4639442348221	23.3386297990228	147.307724601322	3.13376084642114	179.250790347243	6.52478835559101	98	11.7812811814573	110	0
27	C3-Cz	435113	435402	289	24.3494910598457	21.5703217133279	135.422130207933	2.14289674188148	179.250790347243	5.12942744386058	129	10.0651875482653	199	0
27	C3-Cz	480761	480809	48	11.2929502701733	7.83430863565998	35.1280768014961	2.07784658020823	58.7635364067738	1.76067088458799	171	6.4736576145958	170	0
28	T4-C4	427423	427486	63	4.3966400042526	2.30454342938291	15.7066358189479	3.639753904389	16.5179339640071	0.718718288929586	97	2.38986259560676	96	0
28	T4-C4	520054	520115	61	5.96597227340653	2.21896205606883	21.5882954131415	7.2287417471053	21.5882954131415	0.836226079812107	113	3.36450258375501	112	1
28	T4-C4	534159	534259	100	15.8109661865231	2.25755402760754	98.957113115979	49.0501697326979	98.957113115979	1.65794174996135	NaN	12.282586152816	300	0
28	T4-C4	599934	600002	68	25.2951486182147	2.34832612446119	132.629172403174	116.026622891638	132.629172403174	3.29078455162011	83	4.73027251944871	82	0
29	C4-Cz	16395	16451	56	19.2888288487975	9.49362112699972	84.8863104170859	4.12807831185655	85.7974419931278	3.33669373628329	199	7.80137914609629	196	0
29	C4-Cz	22420	22578	158	17.0509177159399	8.27303751931157	79.137886941685	4.24781436597489	79.8177302183524	5.18735823046634	161	7.74169914735232	185	0
29	C4-Cz	32826	32866	40	16.3739971728452	7.21932770356032	62.8173321894469	5.14417708120009	62.8173321894469	2.21066732807678	69	5.60929010315526	83	0
29	C4-Cz	84784	84846	62	16.2277331565924	7.67897752647223	68.5846294424722	4.46589926052885	68.5846294424722	4.29760493723055	149	5.19924615262908	177	0
29	C4-Cz	137992	138363	371	23.3533279277744	13.0409886534052	114.713434037097	3.34744644130388	125.214418450783	6.74725810417907	126	8.34314152134306	125	0
29	C4-Cz	138887	138939	52	20.796670142877	15.8317377738059	85.6735385392973	2.35956872862971	125.214418450783	4.57644113532605	161	10.7289340760807	160	0
29	C4-Cz	142266	142746	480	25.5266879136862	21.6175096754047	163.993239519651	2.09920808405468	166.50944405685	8.27260171555498	105	8.68352919975559	156	0
29	C4-Cz	142954	143015	61	29.2776111027504	25.6141429873437	117.794113782365	1.68869498444851	166.50944405685	3.77712006781626	158	13.6556671551143	204	0
29	C4-Cz	143120	143270	150	34.1127985734599	25.5525630790109	155.332692508852	2.08402201746544	166.50944405685	8.55265076701909	157	16.0585001285795	163	0
29	C4-Cz	143350	143514	164	31.0753232900247	24.7561751769906	124.487524737204	1.9439845392232	166.50944405685	7.18909076942311	84	11.091020610465	127	0
29	C4-Cz	143701	143750	49	34.0498397517026	23.9484722086099	140.51336271889	2.7126710543283	162.794728541327	4.60463388764722	182	14.641715603874	229	0
29	C4-Cz	143919	144129	210	26.3315890979294	21.482248359676	123.71478358171	2.28593733271621	155.365480312433	6.98263483201478	109	9.27274364767625	132	0
29	C4-Cz	147413	147469	56	30.7079336381102	11.548435878587	112.76343880975	7.07057693436573	116.885833275905	5.63090465036642	168	17.1243691991068	167	0
29	C4-Cz	148896	148965	69	19.6363698275309	10.1082080762199	90.2104572501504	3.77375811011745	90.2104572501504	4.84897538774379	94	5.63374241797136	131	0
29	C4-Cz	280779	280820	41	12.2924116176313	7.32422271642299	41.3152531372929	2.81676817277613	66.4044037488094	0.460124173813458	193	6.80003767279764	217	0
29	C4-Cz	427912	427968	56	17.5537095886054	9.22417530999456	57.2470108209255	3.62145190085634	76.0279653938254	0.928077544718106	150	8.74608367720418	195	0
29	C4-Cz	432000	432065	65	16.0109914670261	8.17964169694964	63.3213847495623	3.83149172423513	67.372585845763	3.32116555800542	155	8.08486080427928	154	0
29	C4-Cz	434045	434697	652	28.7140530773257	18.8441172434098	180.082527278738	2.53309712269105	180.082527278738	9.11872688364288	182	10.4129338090915	181	0
29	C4-Cz	435113	435298	185	25.3749645190973	22.2116985343795	134.082307912766	1.78345963804032	180.082527278738	4.96845221795772	123	9.53672966877367	209	0
29	C4-Cz	587150	587209	59	12.1007511069152	7.49580537332443	42.1491860588685	2.60608185964599	61.9237067303799	1.1456831457631	149	5.00842825197014	225	0
31	P3-Pz	74607	74650	43	8.91627450203241	6.39010674726861	26.3772867156931	1.94693133370789	40.8592952737503	1.8936307894277	171	5.46350618783436	179	0
32	T6-P4	5685	5897	212	4.28234417715878	1.79302531393139	16.4446937241531	5.70414157872272	16.4446937241531	0.662205124054483	83	0.43452487030673	82	1
32	T6-P4	7388	7499	111	5.6738878701678	1.88885296652259	20.1149291897068	9.0232957576073	20.1149291897068	0.511921640133111	118	0.516929065483159	117	1
32	T6-P4	19833	19971	138	7.03546200788613	2.01192851078692	30.5150228860515	12.2281330161804	30.5150228860515	0.593449045219103	113	4.20803604400297	112	1
32	T6-P4	37631	37835	204	5.14413892634807	2.21821325117864	21.6701669008217	6.76074034541951	22.7190500020877	0.592235991376252	112	0.598410671322338	111	1
32	T6-P4	37953	38033	80	5.36310661736603	2.48803006158933	20.1560255650023	7.4224541796604	22.7190500020877	0.550422493090365	111	0.579792496978424	115	1
32	T6-P4	60022	60176	154	15.5124998583934	1.63997891116339	121.33790267557	89.4719812305328	121.33790267557	1.3084778042503	NaN	9.95795077296496	300	0
32	T6-P4	64744	64858	114	4.8155322632814	2.34098039576422	18.2912427260651	4.81790132019724	18.2912427260651	0.296451516178564	NaN	4.60814344316432	300	1
32	T6-P4	64991	65079	88	4.44999850169597	2.43004652909162	14.0446535091857	4.08243907141423	18.2912427260651	0.278728404204612	NaN	3.85151267094096	300	1
32	T6-P4	79005	79124	119	4.35115940317614	1.92296504584342	16.1895185829368	5.11996753904744	17.0878846820845	0.574524352020306	76	0.642692149873456	82	1
32	T6-P4	130220	130296	76	3.91802610220695	2.10910227954225	14.0586918746741	3.4509555689778	18.1272595332331	0.463762521356006	91	0.477854705656372	90	0
32	T6-P4	142672	142776	104	5.36181077933672	1.91621613660622	22.279208384112	7.82949914104168	22.279208384112	0.651755178378086	89	0.588322857718064	88	1
32	T6-P4	146641	146723	82	4.39161750565687	2.10542461155865	16.8676243416524	4.35080505496046	18.0597042818467	0.624869400241981	97	2.74717901683067	96	1
32	T6-P4	170834	170951	117	4.83397471119178	2.68954334569305	16.7151555590687	8.07848519303829	20.9655314141363	0.444203079791131	106	0.597326339368135	105	1
32	T6-P4	171031	171485	454	4.68767808783405	2.01033766797932	20.9655314141363	7.7654904993901	20.9655314141363	0.761721348899236	83	0.462551149414824	82	1
32	T6-P4	176566	176645	79	5.31021110385072	2.43099373165207	18.1732232635131	5.24980259241153	18.1732232635131	0.226971879521953	NaN	6.48697367707323	300	1
32	T6-P4	177128	177205	77	4.37913781673052	2.41204555739325	15.5162506709363	3.92529978169109	18.1732232635131	0.865229618777668	93	2.54848889007647	92	0
32	T6-P4	190037	190131	94	4.61582070355532	2.448494955103	17.5027904050064	3.83405051977594	23.3746965097031	0.791607925831321	83	0.437374548568108	82	0
32	T6-P4	190346	190423	77	4.09770119914008	2.45132045401687	13.3211334579616	3.20066974251997	23.3746965097031	0.366127251931541	110	2.81620400510026	109	0
32	T6-P4	295817	295892	75	5.29484130258094	2.04101188220499	18.5284285214879	6.72999636613343	18.5284285214879	0.708067059877868	120	3.05304289715234	119	1
32	T6-P4	323863	324010	147	6.04448319236754	2.14906389391475	26.2393610142344	7.91078703622143	26.2393610142344	0.735838715007767	83	3.99003121431317	82	1
32	T6-P4	328705	328915	210	4.97614223108203	2.1214502814835	29.107838959664	5.50199072756468	29.107838959664	0.681208684548607	100	3.69333655652481	99	1
32	T6-P4	336380	336480	100	5.04249065397886	2.46229210407096	18.2878718280413	4.19383228862644	18.3588473536462	0.662592583349908	83	0.46341512688329	82	1
32	T6-P4	345473	345572	99	4.83667567938444	2.21502289887932	17.4702414734157	4.7680136862936	18.547059796144	0.427644032041115	83	0.531465149516355	102	1
32	T6-P4	382465	382558	93	4.75788775731783	1.88706633875837	19.3116700835812	6.357026901289	19.3116700835812	0.286195383059759	NaN	2.74016100372075	300	1
32	T6-P4	386025	386110	85	5.59161002790032	1.9235366572211	20.0234835373502	8.45031339475254	20.0234835373502	0.692675960813277	95	0.500696161136068	94	1
32	T6-P4	407762	407876	114	4.48481710220758	2.40597699836446	15.9607117653613	3.47461372581811	21.7826664141123	0.366044773767933	95	0.495144911615402	94	0
32	T6-P4	425754	425840	86	6.51647492575527	2.48320789410166	26.8405530873318	9.56405593252451	26.8405530873318	1.14727879678937	89	3.45820149022115	88	1
32	T6-P4	425931	426028	97	6.2984898652477	2.44235102507574	22.6049001304861	9.21477358715118	26.8405530873318	0.548774991310334	110	0.461383823224186	109	1
32	T6-P4	432213	432393	180	5.4425262392667	1.97313475797707	23.936733853559	7.60829895328014	23.936733853559	0.59975678700258	113	0.46498640741045	112	1
32	T6-P4	452626	452694	68	4.48320352303277	1.70757163437079	15.0412571842758	6.8931709026971	15.0412571842758	0.32221991842464	121	2.46293743707539	120	1
32	T6-P4	505959	506059	100	5.52064918554199	2.57673174891418	21.0976458852768	5.41039148781533	21.6220025740224	0.741803250236298	83	0.778614469158015	82	1
32	T6-P4	506200	506265	65	6.01081542999483	2.68969510223419	21.6220025740224	6.02340272723044	21.6220025740224	1.2122628628174	83	3.56335591941445	82	1
32	T6-P4	531996	532155	159	4.79185718142682	3.9762908867562	20.116101469256	5.37767377592139	84.076142474258	0.466803243992669	441	0.493680345504937	300	1
32	T6-P4	532491	532612	121	13.9092456434356	2.41322813501408	84.076142474258	44.6456776808985	84.076142474258	1.02204721950602	NaN	10.4500535934661	300	0
32	T6-P4	540152	540241	89	5.04263682851064	1.65022389226615	20.2552083786143	9.33747907119636	20.2552083786143	0.809931779054129	114	0.671115420314257	113	1
32	T6-P4	551894	551993	99	5.0492372790575	1.85526945103079	21.7644810011599	7.40691861801789	21.7644810011599	0.571792628420804	83	0.579935422337338	82	1
32	T6-P4	561630	561752	122	5.39631537786213	1.83739339649869	19.8936375784792	8.62562045081378	19.8936375784792	0.576692437374255	102	4.44347050640562	101	1
32	T6-P4	582059	582150	91	9.76118787753452	1.81385765854403	58.331404106982	28.9600253508878	58.331404106982	0.921371792194781	NaN	6.92269384186311	300	0
33	P4-Pz	247259	247339	80	9.74050817787451	1.63491899600775	55.9510202907115	35.4952918035898	55.9510202907115	1.50470847628149	273	1.55409913147151	300	0
33	P4-Pz	532497	532625	128	14.2476534609293	1.71279693654512	89.6871407993662	69.195034761009	89.6871407993662	0.90996286946219	NaN	10.6285613030546	300	0
34	Pz-O1	56131	56204	73	4.07830649714717	1.76392440940307	13.432509100648	5.34564091383934	13.432509100648	0.837774255335485	83	2.48483915826008	82	1
34	Pz-O1	368741	368827	86	4.78586236300794	1.52252553453894	16.9537846444047	9.88078021539388	16.9537846444047	0.51627470248149	118	0.650108601965859	119	1
34	Pz-O1	426110	426177	67	4.51040511590712	1.72050071784821	14.7031601356084	6.87260503470022	14.7031601356084	0.652880174224928	83	0.444291852633706	82	1
34	Pz-O1	431851	431933	82	5.29786560339856	1.88433989922481	17.5417300645937	7.90466348012896	17.5417300645937	0.486201562709836	108	0.424887653903441	107	1
34	Pz-O1	599955	600002	47	17.5392124842418	1.6651303429685	74.7462863633326	110.949081013257	74.7462863633326	2.88919303550305	83	3.0355763429603	82	0
35	Pz-O2	37982	38065	83	3.38913816071435	1.7540462696115	11.2967908272864	3.73333065498215	16.6549194580125	0.315133781074424	110	0.400693888414154	115	0
35	Pz-O2	206441	206565	124	3.34474740983559	1.41923921544873	13.1945710045963	5.5541224032888	13.1945710045963	0.500856926508795	83	0.407027068141841	82	1
35	Pz-O2	599955	600002	47	18.481209746806	1.61802770348507	80.5959939717608	130.46345797468	80.5959939717608	3.05430492510666	83	2.54194766518357	82	0
36	O1-O2	37987	38059	72	3.41195206081031	1.63909808850553	11.106645291225	4.33307247828036	12.0874970832045	0.479711870255678	110	0.506779094404838	118	1
36	O1-O2	56120	56204	84	3.16878274777768	1.5479722572936	12.2263916394317	4.19042993767145	13.0163237720826	0.259353638883667	125	0.393667373223753	124	1
36	O1-O2	283197	283276	79	3.58229042404963	1.52728763449137	12.8290608360074	5.50148474641529	13.3643423146534	0.380805366710448	83	0.617213967091585	106	1
41	T5-C3	335773	335839	66	3.57384243889542	2.08557228397302	12.2947205168996	2.93643444685084	14.8953327924964	0.72226989450244	83	0.421584538060128	82	0
42	C3-Pz	161220	161266	46	2.52509208886916	1.51370315173995	7.59531180248897	2.78274244361223	9.34423000752553	0.386093290192561	164	1.31885844942519	167	0
43	T6-C4	7409	7490	81	5.21382741278502	2.06448415552473	19.3514814221699	6.37808340375028	19.3514814221699	0.935227508634558	82	0.956738564715619	92	1
43	T6-C4	17109	17197	88	4.35245693866767	2.08043540325993	15.0960688599894	4.37683822678053	15.2643397732031	0.453475791873134	107	3.15005859897095	106	1
43	T6-C4	19869	19973	104	7.5403051192074	2.11711719026621	29.3135763152786	12.684929066459	29.3135763152786	0.816467761431287	112	0.817444341970277	111	1
43	T6-C4	37632	37821	189	5.59276782029887	2.49865342006974	20.4948207135097	5.01004398889542	20.7435855312668	0.488084490626766	101	0.669361505594407	110	1
43	T6-C4	60046	60202	156	15.5108321293163	2.01266517592593	122.392980356302	59.3918879130577	122.392980356302	1.24634339416245	NaN	8.73316281026325	300	0
43	T6-C4	94587	94656	69	4.16443153538734	1.85972398039985	13.5512562719661	5.01434799626689	13.5512562719661	0.300368404431376	110	2.74632646097033	109	1
43	T6-C4	170816	170901	85	5.08337073955857	3.024133033783	17.5022131544293	4.07636883444895	23.1124297664968	0.412214577850943	83	0.56126456639101	107	1
43	T6-C4	171314	171484	170	6.2578515494581	2.6415927523635	23.1124297664968	6.38787533420876	23.1124297664968	0.460027747040999	109	0.708851179972952	108	1
43	T6-C4	176575	176647	72	4.91116096087297	2.53901996944792	16.8724363919511	3.74141689513882	19.1925436879801	0.504349630519382	80	0.609388192213132	82	0
43	T6-C4	189931	190126	195	5.59978839741356	2.31663379924015	28.6826477144315	6.93411286945703	28.6826477144315	0.92185203197619	83	2.97808807186478	82	1
43	T6-C4	190317	190418	101	4.59155033305996	2.59418729640568	15.6227896814969	5.20030458404243	28.6826477144315	0.629316535388893	83	3.12986390791394	82	1
43	T6-C4	206256	206331	75	5.34918437345855	2.54710757553527	19.7429650760724	4.41042620050392	19.7429650760724	0.539861125464098	83	0.688425339900754	82	1
43	T6-C4	268701	268759	58	4.860049705731	2.26139438395739	15.4939084465238	4.61879623798205	17.9436436960051	0.650775808409556	131	2.44893993210736	130	1
43	T6-C4	282777	282885	108	4.12665979341782	2.01662394978329	14.2122636068283	4.18742934254283	17.5442335026171	0.274388196109477	NaN	3.32768503899006	300	1
43	T6-C4	323869	323970	101	5.46884976449556	2.28883389408786	19.8500933989489	5.70904457377495	19.8500933989489	1.12082152136492	83	3.35587874484533	82	1
43	T6-C4	328836	328910	74	8.20978050032105	2.2881904840109	33.0079927114864	12.8729695313357	33.0079927114864	0.506821563007562	113	0.5153084263892	112	1
43	T6-C4	336352	336477	125	5.84918746432329	2.45265206702651	24.3621763713781	5.6874709828133	24.3621763713781	0.93255224898605	73	1.04680389629092	88	1
43	T6-C4	345471	345550	79	5.4277393487118	2.35927174442496	20.1590953873102	5.29275796797898	21.7328743019166	0.55476979634459	87	0.650560488279273	100	1
43	T6-C4	364297	364385	88	4.65165065081561	2.02707969766736	15.369862660678	5.26589910446071	16.7855076952044	0.517134928208866	112	0.582290821819413	111	1
43	T6-C4	382458	382536	78	5.62622527280757	2.04981724758727	22.3524477312902	7.53362412837839	22.3524477312902	0.515654865401655	93	0.831355283650484	116	1
43	T6-C4	420222	420291	69	4.80671027279083	1.91769164752174	16.5249373393488	6.28258448910648	16.5249373393488	0.304495643853171	107	0.641706217822709	108	1
43	T6-C4	425939	426042	103	6.97741264372267	2.57496715127693	26.2506859564217	7.34252492556625	28.5768301488781	0.389726066205036	110	0.56693397196644	109	1
43	T6-C4	432208	432311	103	6.83551326747145	2.51037011286811	26.464066460387	7.41424186924132	26.464066460387	0.578145669660625	99	0.694806063525131	108	1
43	T6-C4	456275	456349	74	4.78008078972038	2.10333103159858	16.3708452636804	5.16482029348612	17.7963578332612	0.405836714683829	90	0.462495079240093	111	1
43	T6-C4	505974	506055	81	5.38441041496547	2.59259718898667	18.7453251758556	4.31326577783643	21.7012293026386	0.38282759033122	NaN	6.03865408710974	300	1
43	T6-C4	530278	530351	73	4.66569213541129	1.87335945959417	17.8211354937717	6.20283061668225	17.8211354937717	0.54283143709993	122	0.451529714300566	121	1
43	T6-C4	599931	600002	71	27.1405353381328	2.08716738264481	144.357858703739	169.091688576707	144.357858703739	2.36348957655685	NaN	7.27105547047021	300	0
46	P3-Cz	48526	48583	57	20.1184098365064	11.800422604399	70.106251195316	2.906646254663	107.85954492019	2.08556490406385	143	11.4929021945528	147	0
46	P3-Cz	102575	102615	40	21.9307317633712	10.8685567203264	84.6216648587244	4.07157551199911	91.9280482363359	1.57078368453604	187	11.7451079435852	225	0
46	P3-Cz	138888	138939	51	20.9772437243534	16.9061238121112	81.9665037316515	1.53960303222037	131.444024051614	5.78040252706857	161	10.4243610547184	160	0
46	P3-Cz	142265	142511	246	29.219223216572	21.1547572188785	172.529626435133	2.498286126446	173.720824405937	9.55085993281321	149	9.57164337968169	154	0
46	P3-Cz	142970	143014	44	31.1980266297866	25.7748370223639	113.634183048086	1.77691192455931	173.720824405937	5.07170626104794	155	12.955815476258	207	0
46	P3-Cz	143120	143268	148	33.818166645785	25.7593867197165	149.818988361636	1.95663467538476	173.720824405937	7.95725976109207	155	16.1592781861074	162	0
46	P3-Cz	143351	143421	70	35.1903587558356	25.6186061140955	129.761235179589	2.1685130541884	173.720824405937	10.157543278908	142	13.8827953063004	141	0
46	P3-Cz	143963	144217	254	26.323756107601	21.3787074941953	128.041746191203	1.96456291363167	156.516887613815	6.87504556902595	104	9.54687291127674	109	0
46	P3-Cz	147424	147469	45	33.439030749111	12.2161584018219	108.401923702109	7.49269493242259	115.567322245534	5.04336563134061	168	18.1407442239927	167	0
46	P3-Cz	434045	434330	285	29.6598415801327	22.1792793328193	149.148453014592	2.32270416358383	179.951862717609	9.74920789520084	176	9.74607001055434	175	0
46	P3-Cz	434429	434477	48	24.4176162613397	25.0286754593966	83.899665784522	1.30840011740832	179.951862717609	4.92480122678151	163	13.6863106603943	186	0
46	P3-Cz	434564	434681	117	39.5337463539786	23.5593083695828	177.052185801898	3.53161009575594	179.951862717609	10.0640172592154	67	12.7344190314624	110	0
46	P3-Cz	434876	434936	60	35.5214647045181	24.5412369985737	152.692891277901	2.79559026762645	179.951862717609	3.54297573118368	139	13.7870669405024	239	0
46	P3-Cz	435250	435405	155	26.7334150718433	22.242101568223	135.845133995219	1.95083303839582	179.951862717609	4.29703740244694	136	11.3450411033958	200	0
47	T4-P4	5450	5545	95	4.42109176304866	2.3163096864673	14.7035502978648	3.64305570136739	17.4167943475831	0.760539698067473	107	0.667716588685439	106	0
47	T4-P4	11013	11068	55	5.15886849955737	2.01186957569085	17.1392139483676	6.57520457066959	18.0478679076365	0.940289856320569	73	1.27768816807259	97	1
47	T4-P4	437541	437684	143	6.30455024467376	2.15852047080762	26.2096662462649	8.53092015035673	26.2096662462649	0.640805925659574	91	0.69342805558205	90	1
47	T4-P4	532501	532654	153	13.3412758020539	2.33620283872772	87.8701728719375	32.6117143857516	87.8701728719375	1.0705103085321	NaN	9.76116551226854	300	0
47	T4-P4	534157	534265	108	14.2840892479928	2.04961508063739	91.5648453015836	48.5691490285807	91.5648453015836	1.4794676823441	NaN	11.5500495441966	300	0
48	P4-Cz	16395	16450	55	19.9554234680087	9.36888308325848	87.1794509337092	4.53676472905087	87.1794509337092	3.18127866968332	131	7.7831411479854	192	0
48	P4-Cz	22421	22578	157	17.2092108557434	8.28018753239835	79.7208237321994	4.31958043814814	80.9371478744517	5.17018352249982	164	7.65529375765907	186	0
48	P4-Cz	32826	32866	40	17.1193288665218	7.23755224639817	65.4153940352016	5.59487059610997	65.4153940352016	2.37820174126884	67	6.20236992299219	82	0
48	P4-Cz	102440	102511	71	15.6525451414111	9.52645858648953	65.3072984415963	2.6996468867095	86.7243888497069	3.51653663292928	186	3.51743153034121	185	0
48	P4-Cz	103788	103870	82	16.9125932227698	8.75060869067182	60.1819323909675	3.73545819049999	73.037571781412	3.11059076286079	164	9.16034612531999	163	0
48	P4-Cz	137993	138365	372	23.1483301430247	13.0970296509247	115.062488806089	3.25402497370513	126.386696732767	6.79325266103171	125	8.23389110738151	124	0
48	P4-Cz	138887	138939	52	20.5806980039571	15.8618405316116	83.4928432935834	2.2719487117937	126.386696732767	4.26504202775133	160	10.827781810301	159	0
48	P4-Cz	142265	142659	394	26.5824454583852	21.1969950060914	160.49350069608	2.80781764746192	164.771954770323	8.68970645335019	163	8.7009213664869	162	0
48	P4-Cz	142844	143015	171	29.5786404150823	24.757952057431	149.119439495614	2.37355698694688	164.771954770323	9.80114262923739	128	10.4204584132826	180	0
48	P4-Cz	143120	143270	150	34.5432554302785	25.5891448381946	152.16994652679	2.50840195035931	164.771954770323	8.5534667967212	158	16.1937465204499	163	0
48	P4-Cz	143351	143554	203	31.0962624080087	24.4732298895626	130.245278430767	2.46636768000047	164.771954770323	5.91760339471209	145	11.6511889472429	195	0
48	P4-Cz	143702	144129	427	26.5506615677582	21.7508972746614	147.051818041342	2.48249027857804	163.588568364147	7.75883008306829	110	9.04814699159281	137	0
48	P4-Cz	147413	147469	56	30.29358210443	11.5153562107407	112.424076851513	6.92064395309999	118.108615593218	5.82824225682762	167	16.6196782484218	166	0
48	P4-Cz	148906	148963	57	21.8892456290573	9.88967350084674	91.8480918430971	4.89888992741071	91.8480918430971	5.34096063542706	133	6.05277536207018	132	0
48	P4-Cz	280770	280821	51	12.0587811038369	7.26137148530106	42.8574889288785	2.75784283353506	66.9527737797846	0.785646625203962	130	6.42750809634704	213	0
48	P4-Cz	427913	427968	55	17.6039738325449	9.13285253708832	59.6961692550798	3.71542533239037	74.5936828304268	1.43108956914543	149	9.0759588146669	195	0
48	P4-Cz	432000	432066	66	16.6201506059839	8.26387846309691	63.8458700287666	4.04484670503013	69.5112490617284	3.40077364617342	154	8.38848629949179	153	0
48	P4-Cz	434045	434479	434	27.7426912550175	21.1950152542544	162.61149758918	3.52733736047472	180.47418221036	9.67892543509815	164	9.78770806841694	183	0
48	P4-Cz	434561	434935	374	33.8806689560883	19.8619532318217	180.47418221036	5.27427444680586	180.47418221036	9.59593406705645	109	9.96878292187516	108	0
48	P4-Cz	435113	435402	289	24.6842828860933	21.6446666395901	135.086471087502	3.20955842371458	180.47418221036	4.52495840085623	129	10.2365036294567	202	0
48	P4-Cz	475208	475254	46	15.1918359027334	8.38625268360898	57.3519284467503	3.28159237245372	85.6734753429882	1.16233237891593	144	7.42520504545495	192	0
48	P4-Cz	480761	480809	48	12.1063705504283	7.83724494854359	37.4074108693716	2.38616836691341	61.7347842914716	1.56273636823623	171	6.90794783482381	170	0
50	F3-Cz	16396	16451	55	19.6930491891372	9.72137460364991	86.9145987551739	4.10365247083002	86.9145987551739	6.96709179836199	152	7.85122405106545	188	0
50	F3-Cz	22523	22578	55	20.3913261258466	9.06961287068863	74.3037008620971	5.05491015791179	79.3634015407273	5.38935367904831	158	9.60421972287163	182	0
50	F3-Cz	47528	47582	54	17.0555086655165	10.0527412486406	59.3740898420875	2.87846096490299	79.7615592979204	4.30033722923989	159	5.2700792621436	158	0
50	F3-Cz	84779	84827	48	15.5410059366773	7.78054374612508	60.9467958677767	3.98968267585306	61.341846583588	4.99933568958898	149	5.23665023252907	181	0
50	F3-Cz	137993	138165	172	27.289613660031	14.6380281231936	119.484470756573	3.59411216984292	126.273965206478	7.6212039705158	126	5.22776369645925	125	0
50	F3-Cz	138887	138939	52	21.7675932871783	16.1722954400331	86.9526027000884	2.19577864608216	126.273965206478	4.82187103049377	160	11.5230205039713	159	0
50	F3-Cz	142264	142659	395	26.8412929557576	21.3818080373358	161.062276854227	2.57574365504934	167.192078187885	8.66020728616271	162	9.38586558693538	161	0
50	F3-Cz	142954	143015	61	30.5646081791588	25.8231614182319	126.168533261191	2.12657195913318	167.586940599276	4.52209360770049	153	14.0021377042618	206	0
50	F3-Cz	143119	143514	395	32.7653982893533	23.5431182129284	157.484177408796	2.60970851445506	167.586940599276	8.54706762852987	154	8.54547391153325	153	0
50	F3-Cz	143702	144128	426	26.7984215065947	21.9594874489166	155.177412704515	2.30044209793409	167.586940599276	5.20655521409737	139	9.3523400941352	234	0
50	F3-Cz	147422	147468	46	31.3536594334806	11.9186531525791	107.817059204803	6.92025520177717	119.573078926481	5.31565012127899	167	16.9834718980596	166	0
50	F3-Cz	149010	149076	66	15.9885469811527	10.4190220646511	56.4804786355638	2.35485450482674	91.5570434231765	3.18255111193629	140	4.96383440641435	148	0
50	F3-Cz	164893	164949	56	13.7792805024046	8.87305237408356	42.6065410878984	2.41160953431066	79.0101725828674	2.63855632584379	160	7.84401513051553	159	0
50	F3-Cz	351246	351287	41	20.1412275834045	8.99712073206913	83.0764873569995	5.01146586881294	87.1573826306567	2.41426336231405	189	10.0358730859259	236	0
50	F3-Cz	427912	427967	55	17.0695940756458	9.29921832251999	55.9438889080728	3.36940719548442	74.311180855647	0.87156239810285	145	8.29744133438653	196	0
50	F3-Cz	431999	432064	65	15.6996039955827	7.95822987145617	61.670738728921	3.8917455454204	64.9249176392496	3.59704312292838	156	7.8231300356619	155	0
50	F3-Cz	434045	434478	433	27.7480075514325	21.180974605387	163.489140318091	2.12887715567109	176.838486683362	9.75772054989402	163	9.90226199886628	182	0
50	F3-Cz	434564	434693	129	36.5914701860071	22.6718184065379	174.570212308081	3.18701122177551	176.838486683362	9.75153120141627	62	11.9383661806166	109	0
50	F3-Cz	435113	435299	186	24.7462406458294	22.3758495669773	127.165634849392	1.64359034649175	176.838486683362	5.49297518718259	202	9.53262341348545	207	0
50	F3-Cz	597733	597798	65	11.1691385101553	6.88126154028597	33.1649580772437	2.63453045974601	66.8353639313503	1.64460186698768	162	6.778607123877	163	0
51	T4-F4	369642	369736	94	8.04126519064052	2.63427827471779	40.0761448899509	9.31805928494379	40.0761448899509	1.96503360750976	83	4.72054996430713	82	0
51	T4-F4	437559	437634	75	6.88505475772265	2.31280093196814	25.0344057719075	8.86213353842229	25.0344057719075	0.633867242940774	93	0.796309243295042	94	1
51	T4-F4	534153	534246	93	14.9778978073099	2.26886359323729	91.3618680993798	43.5797719700452	91.3618680993798	1.78081647401506	NaN	12.7895974674007	300	0
52	F4-Cz	22420	22578	158	17.0396303193394	8.27145941511147	75.7624579105981	4.24381115856141	79.3488785855775	5.23937547939773	163	7.56743431144148	184	0
52	F4-Cz	32826	32866	40	17.5120263947848	7.40926709821687	65.8518339446981	5.58627490951758	65.8518339446981	4.84627732169213	190	5.77941986976312	189	0
52	F4-Cz	48525	48576	51	17.5041647110756	9.95630440467223	59.6287151969434	3.09091064354656	80.1261501776043	1.80528934258766	144	9.37201897342844	143	0
52	F4-Cz	84784	84828	44	16.7172275813441	7.71226299721125	62.8330617651608	4.69856076056933	63.930172400155	4.94206783619846	149	5.26742411712356	178	0
52	F4-Cz	102441	102508	67	14.9434221142621	9.69719486071582	57.6703939983787	2.37469524930468	87.780427853492	3.3620462074511	186	8.3645427908936	185	0
52	F4-Cz	103788	103870	82	17.3677256188356	8.94063537646029	62.8948487892977	3.77354150979247	74.3417461446788	3.12240798155513	163	9.25098470694881	162	0
52	F4-Cz	137993	138065	72	27.6938412215236	15.1795363874446	113.740139217721	3.59680496938885	125.78640708925	5.69893127119454	117	3.921246784432	116	0
52	F4-Cz	138201	138272	71	22.9034474289133	15.682656999488	101.304153389957	2.38237778612026	125.78640708925	2.45733829074825	149	11.1582998017115	148	0
52	F4-Cz	138889	138939	50	21.1594995613176	15.935862498014	87.1857370168004	2.00539483710393	125.78640708925	4.81208203052243	161	10.6345055686363	160	0
52	F4-Cz	142227	142626	399	26.0750860218012	20.6896410718596	166.636398576059	3.22705684609627	166.636398576059	8.06523466235141	169	10.203921632766	168	0
52	F4-Cz	142795	142840	45	32.517659792297	24.4752035095519	127.003177260284	3.21569899255951	166.636398576059	7.52287130998937	133	10.4924545989277	170	0
52	F4-Cz	142955	143015	60	29.5936200613708	25.5881701162073	116.253775011305	2.27459309443457	166.636398576059	3.93888744450725	152	13.9127512200886	207	0
52	F4-Cz	143119	143554	435	32.0221914838763	23.039857224973	156.535151793181	2.86362191857996	166.636398576059	8.52889865529608	152	8.3327244404141	151	0
52	F4-Cz	143702	144129	427	26.7509356320635	21.7893379296689	150.080756708504	2.60398865521142	163.265956804522	7.83319681646194	109	9.25320606630112	137	0
52	F4-Cz	147422	147568	146	24.999016650751	11.2413074416478	111.877811961021	4.94552270873587	117.791322119118	6.84237113359609	129	8.19812166591442	164	0
52	F4-Cz	303687	303732	45	14.0944153422814	10.0386899275104	45.6917396621589	1.97124248490258	71.0320829789736	2.595888623215	167	7.86667565514917	166	0
52	F4-Cz	416734	416777	43	13.2745978115792	7.58327668942375	41.9775765813501	3.06428347524817	68.633014330083	2.43764177524369	184	5.3108587829721	183	0
52	F4-Cz	427913	427967	54	17.0853319431932	9.18905903918074	58.8368343755137	3.45704281418635	75.3423141285145	1.51454430328312	145	8.73327069364369	196	0
52	F4-Cz	432000	432065	65	15.9681703988501	8.18936299074182	59.416462006389	3.80198215206907	67.0043248789118	3.40940033950094	154	8.02195927278818	153	0
52	F4-Cz	434045	434696	651	28.7275456326092	18.8986378941029	179.548999942555	2.73886406348514	179.548999942555	9.11332827135479	183	10.5592497909945	182	0
52	F4-Cz	434861	434934	73	33.0453469707664	23.4771571308706	146.217595174984	2.77719057959686	179.548999942555	6.16277197027434	97	11.8372741879831	109	0
52	F4-Cz	435113	435164	51	18.3452264127586	23.2769780495174	65.5315420678999	0.91829006919324	179.548999942555	5.93728802742597	61	8.370709273951	91	0
52	F4-Cz	435250	435403	153	25.1927890292161	21.1119262116211	133.387900525694	2.05912303701658	179.548999942555	3.59083417356186	136	11.2245761064423	200	0
52	F4-Cz	480761	480808	47	11.2021729826159	8.19788097999002	34.651254746873	1.86724511475538	64.2891179484606	1.72669699294593	170	1.66658546588022	169	0
