nChannel	strChannelName	indStart	indStop	indDuration	Event_RMS	Window_RMS	EventPeak2Peak	SNR	Amplpp	PowerTrough	Ftrough	PowmaxFR	fmax_FR	EvPassRejection
1	Fp1-Fp2	12772	12923	151	4.57593791666346	1.12029571836961	22.4360373872838	16.6837969216103	22.4360373872838	1.06689404879566	106	1.57971665932719	105	1
1	Fp1-Fp2	99240	99426	186	4.10292953428403	1.50678567558695	19.8871586492517	7.41455601860554	19.8871586492517	0.961913565585385	83	0.630771745376724	82	1
1	Fp1-Fp2	320437	320501	64	4.94731253428847	1.04450418961656	23.5054151586187	22.4345994911216	23.5054151586187	0.398744791771568	NaN	3.65433115818455	300	1
2	Fp1-F7	99220	99309	89	3.38856687018795	1.34234540840066	14.2413813944419	6.37240775841636	14.7285972261168	0.594758600811011	121	1.63971815627337	120	1
2	Fp1-F7	115725	115777	52	1.86424316244272	0.965998171946102	5.78902042770021	3.72436733238924	6.16531282029483	0.334478214729973	172	0.80528741396936	171	0
2	Fp1-F7	320432	320507	75	5.08220152772531	1.05725093139607	25.2813505217711	23.1072153590385	25.2813505217711	1.31888966315551	83	2.87593626702543	82	1
2	Fp1-F7	336521	336592	71	2.12538704625858	1.5958471374339	7.69853158849571	1.77375437964385	11.5314740153107	0.336990836670499	189	0.813271541071438	188	0
3	F7-T3	331711	331858	147	6.29275356607068	7.12221941490668	35.4849609282523	1.32813982651449	77.580489855802	2.40602865824622	61	1.88992209724271	88	0
3	F7-T3	332408	332486	78	13.0281294011766	8.25211695455625	62.4528330923607	4.17295674000114	79.6953215659519	3.30477964012578	61	4.19547846513821	82	0
3	F7-T3	332609	332804	195	13.6673243066331	8.64108704501436	79.6953215659519	3.68790584115864	94.1435107990844	3.74464158159978	69	4.00358233378646	103	0
3	F7-T3	332978	333727	749	10.2144632087496	10.0294145609073	94.1435107990844	1.65300510920769	94.1435107990844	2.44678122233312	137	3.55166600107291	136	0
3	F7-T3	333867	334216	349	10.8353794533833	11.0450819125374	63.476677973137	1.33898695397688	94.1435107990844	2.48921867829524	117	4.86674312237751	116	0
3	F7-T3	334513	335008	495	12.6640502553712	11.922631351904	85.1238339923073	1.75213212695973	94.4599069606188	3.1502831690446	123	3.31556557138848	122	0
3	F7-T3	335103	337197	2094	13.3389559380759	12.6921141393525	96.9861393456427	1.16024614330634	93.7860638118129	0	NaN	-1	300	0
3	F7-T3	337368	337726	358	13.6007602736396	13.2541736534672	73.4377239479816	0.94213397315548	89.1282005517287	3.36031378581265	109	3.26448507567586	108	0
3	F7-T3	337810	337900	90	12.5072849289029	13.4128975593344	58.2358142321633	0.850591686331505	89.1282005517287	2.09608237924197	96	3.77296075778159	120	0
3	F7-T3	338089	338703	614	12.9048200894421	12.828669766845	77.8696217231646	0.977129462321478	89.1282005517287	3.52709667861336	129	4.00342861776338	128	0
3	F7-T3	338783	338847	64	13.0153805751533	12.4313632714177	64.6264644791265	1.01738968447937	89.1282005517287	4.92651634519947	71	5.16543603483635	89	0
3	F7-T3	338958	339764	806	11.7457492970604	11.284548115399	72.6623085908604	1.28366886915193	79.442718165085	3.29029775629053	105	3.84463358018592	104	0
3	F7-T3	339916	340437	521	10.4144381544608	10.4735945719098	70.6499872106126	1.30097309116388	73.9935805013249	3.33674172286477	83	3.67923331836583	82	0
3	F7-T3	340666	340756	90	9.75018073531546	9.8204434722001	45.4818649118143	1.1682244305971	71.4026366816084	3.52931433685357	61	3.60136195997561	82	0
3	F7-T3	340837	341457	620	9.815521713518	9.18681331173955	64.7469429325069	1.44472832157335	70.6499872106126	1.68886373175929	NaN	3.59813988150317	300	0
3	F7-T3	341543	341761	218	9.27435728015787	8.83404524332739	55.3177834241913	1.44301923114847	65.2127866604052	2.73891218139579	83	2.35948516523855	82	0
3	F7-T3	341999	342243	244	9.71820481869053	8.74411517611874	53.6632589909634	1.67641774088276	66.8832303321822	2.55254868864679	67	3.14708514440442	88	0
3	F7-T3	342549	342714	165	8.56794262720091	8.46962379466166	49.4581561475826	1.2681880913418	63.8266913962269	2.24299820620799	123	2.45466742913673	122	0
3	F7-T3	342835	343035	200	10.2998593432652	8.19655429459472	60.588997356538	1.74030905396233	62.8805169645126	2.81134859013701	134	3.29178704206963	133	0
3	F7-T3	343147	343231	84	7.29344686129861	8.61043035536593	38.1132033668243	0.829886687763686	64.5746470169479	1.48936559147752	114	1.1546707405251	113	0
3	F7-T3	343331	343409	78	9.84344188137406	8.27350316829982	49.5811699649603	1.54174490843262	64.5746470169479	3.12647515193686	83	3.38974669330163	82	0
3	F7-T3	344272	344641	369	9.63800246557962	8.97816280435403	57.3660575952399	1.20162667198995	64.0186389876107	1.87245775716029	187	3.36221620655188	186	0
3	F7-T3	344843	345092	249	9.85950078558529	9.19016117718307	52.6451960157278	1.26050962522762	73.4201028762103	3.36420147594948	92	3.96149653702385	91	0
3	F7-T3	345218	345319	101	9.6648053402776	9.0788625648642	46.4185104334018	1.33066163409282	73.4201028762103	1.96186481575719	106	2.0521657185904	105	0
3	F7-T3	345578	345824	246	9.96973560037702	8.77098307388573	57.9959341632647	1.47232745116842	73.4201028762103	2.98434690644728	115	3.22593410003172	114	0
3	F7-T3	345919	345978	59	10.252837789434	8.8475647050332	40.7010371506905	1.53839605547944	73.4201028762103	2.94915468558505	109	3.77333629874115	152	0
3	F7-T3	346328	346495	167	9.0297205842105	8.59072322822562	48.4806309815758	1.31730473951137	73.4201028762103	3.43566949561658	93	3.66510689091769	92	0
3	F7-T3	346795	346845	50	11.1920251024596	8.38832798090248	46.0077839971894	2.28795051839032	63.314230452903	1.38488421579165	148	4.35664262569765	196	0
3	F7-T3	347378	347749	371	10.2084583905913	7.68117778535651	61.926696503162	2.07590748386194	79.5159695020067	2.78493727693471	119	3.64523426887449	118	0
3	F7-T3	348014	348405	391	9.058280800596	7.55043567483452	79.5159695020067	1.83888246282411	79.5159695020067	2.56105950582477	103	2.73294139593947	102	0
3	F7-T3	349029	349089	60	9.34777138305089	7.1348248219087	43.4273339213874	2.26281813232654	79.5159695020067	3.30609863643528	61	2.43742647869475	96	0
3	F7-T3	349412	349483	71	5.71313552793736	6.68660091483712	25.5339307777178	0.896193441757204	58.5003883197854	0.956613995961304	115	2.57566828569103	114	0
3	F7-T3	349686	349762	76	13.4642863396927	6.21558412228973	58.5003883197854	5.038281418843	58.5003883197854	3.23429580061894	129	3.47986503240731	128	0
3	F7-T3	350132	350340	208	6.89242513001851	5.83609189299237	49.0599461379866	1.69719029693144	58.5003883197854	2.1372181790073	61	2.41331081852468	83	0
4	T3-T5	331255	331296	41	6.68924966120826	5.11329589645713	22.267645098426	1.72942536890565	60.1062519918497	1.58836063999526	110	2.02655654329896	149	0
4	T3-T5	331893	331937	44	6.16288733324186	7.57618057042253	25.5277018408754	0.860272770553635	84.6915430952751	0.773060782928505	132	2.51813621401395	214	0
4	T3-T5	332441	332546	105	11.4120807744807	8.74232978114752	49.4220298782595	1.87691915922293	86.1213754437966	2.96756517394591	88	3.37648926471167	129	0
4	T3-T5	332673	332803	130	13.2878559677833	9.4067182575509	80.8238750537118	1.92828404010875	92.9467170517188	3.28845299862066	94	3.98572614912992	103	0
4	T3-T5	333085	333171	86	8.11594965684264	10.5175934870631	41.4139479174664	0.623224182629109	92.9467170517188	2.9375276362664	80	3.00198919907543	93	0
4	T3-T5	333307	333390	83	9.50460331999989	10.8012226089321	48.2463093046829	0.766104777569194	92.9467170517188	2.5865490182443	61	3.10518155212026	95	0
4	T3-T5	333664	333759	95	5.84586149947659	11.1476541187081	22.8562922119943	0.278915408291707	92.9467170517188	1.51110788461417	104	1.99443765835306	143	0
4	T3-T5	333924	334219	295	11.6110276810806	11.7411057534559	72.9404340945883	1.06029694889013	92.9467170517188	2.45807472459501	116	5.51541240367052	115	0
4	T3-T5	334351	334796	445	10.9752888884145	12.7181200905453	67.3334310600383	0.976376726583277	95.0754447802397	2.55793954310237	134	2.76643446528742	133	0
4	T3-T5	334922	335010	88	19.6741378095269	12.5970991691421	92.7852029324142	2.99799334687116	95.0754447802397	4.60749902179805	118	5.31621957335048	117	0
4	T3-T5	335105	335771	666	14.6906702457106	12.9633074684351	92.0400858057227	1.66477666050061	95.0754447802397	3.17821261978038	136	5.77638701508641	135	0
4	T3-T5	335856	337899	2043	13.7134464368197	13.6386094830053	93.6438303930805	1.06171005286297	98.0172702727942	0	NaN	-1	300	0
4	T3-T5	338004	338153	149	10.6958553761739	12.8712510269281	58.3381811915782	0.720146502860954	88.9945724022583	2.86101644609622	89	2.0896219303549	110	0
4	T3-T5	338310	338905	595	12.0999715029691	12.422742146191	75.2129077050382	0.906579828089153	85.0146141466355	3.94294288026493	90	4.44406912583269	89	0
4	T3-T5	339028	339175	147	8.73685484124807	12.0743840163223	52.4439563322737	0.571535004683985	76.418029152069	2.08558427330089	95	2.30564337980259	94	0
4	T3-T5	339310	339663	353	12.9197435269294	11.0432153479843	66.347843475618	1.38216703135188	75.2129077050382	3.89640338578451	95	3.46875567272827	94	0
4	T3-T5	339972	340437	465	11.3579886400424	10.5922156545797	67.733360615928	1.25620873468931	74.4345546832737	3.67528221466063	84	4.08903150969104	83	0
4	T3-T5	340523	340753	230	8.05403853636013	10.5169026313642	47.9285402424795	0.718081706124119	68.9109713234806	2.40197937871504	68	2.12590541231832	82	0
4	T3-T5	341013	341121	108	11.1560585758354	9.32719305587506	50.2389394498055	1.82167242535359	67.2580072489858	3.31898073310046	61	4.49389790654804	94	0
4	T3-T5	341244	341339	95	13.0675062084734	9.07772536355474	62.7791516310844	2.40818939649989	67.2580072489858	2.09846720392784	109	3.07700871783316	123	0
4	T3-T5	341544	341885	341	9.61262456629296	9.0698621347006	65.5293590206195	1.53593888279498	67.2580072489858	2.70372610132674	122	2.71460419081961	130	0
4	T3-T5	342043	342301	258	10.0862283582429	8.82245984992552	64.0546007035518	1.82228017151578	71.1792755926484	2.21241501680052	71	2.77657750102767	88	0
4	T3-T5	342550	342608	58	12.4251668690879	8.71711203584242	51.266669245259	2.77443153150802	70.7257972591365	3.43173850011355	132	4.29520685227998	131	0
4	T3-T5	342836	343042	206	10.6098433425445	8.6803614636403	69.5466898996024	1.93637800981508	70.7257972591365	2.86913815743604	135	3.5562546526809	134	0
4	T3-T5	343295	343408	113	10.1763655232939	8.5698159372542	49.1676389475232	1.75997955600677	71.053806768555	2.94528026790168	83	3.6108995939682	82	0
4	T3-T5	343542	343633	91	7.32523077592249	9.04260441066728	36.8516197208271	0.908007541610765	71.053806768555	2.40667718838193	112	2.69663513840289	111	0
4	T3-T5	343956	344308	352	9.88029931449608	8.8949895530792	66.4537089146727	1.46464710934089	66.4537089146727	2.55494721551822	111	2.77161025608295	110	0
4	T3-T5	344400	344554	154	11.1144523368705	9.15806731501888	59.8728603148585	1.83197580572373	73.963639789804	2.2277891965656	183	4.06759461108274	182	0
4	T3-T5	344864	345153	289	10.3065245837022	9.55388693254581	54.8567161386939	1.61079615694821	75.4978201912992	3.46300560740421	91	4.37409210407404	90	0
4	T3-T5	345386	345494	108	13.5609662108888	9.20444216809503	75.4978201912992	2.93392944965103	75.4978201912992	2.68063930991303	124	2.09151274288555	123	0
4	T3-T5	345590	345825	235	11.0943351555912	8.81362726726312	62.1590033544577	2.09225727346163	75.4978201912992	2.99184967785853	74	3.49545197111943	114	0
4	T3-T5	346017	346158	141	9.66610805816339	8.94626017595815	52.5600657440192	1.61664935087741	75.4978201912992	3.41320079074015	89	3.52774123929418	103	0
4	T3-T5	346330	346396	66	10.650782032367	8.61304362858933	48.5568359081611	2.15472347676039	75.4978201912992	4.03850562143494	61	4.46946433552869	90	0
4	T3-T5	346798	346845	47	11.1390463269908	8.5737638952436	47.7114068082501	2.03614691295981	65.702582571902	2.39135734399385	184	4.85744568131066	183	0
4	T3-T5	347228	347291	63	9.87047393062118	8.34509903434707	45.4769306510031	1.56044664515861	83.2205147097413	1.79851699439244	61	3.51363096678474	82	0
4	T3-T5	347379	347496	117	11.7360979708272	8.10388806184572	59.5015641923474	2.13065807689707	83.2205147097413	2.2733089115	167	4.44662749608671	166	0
4	T3-T5	348047	348106	59	8.22214521132858	8.24662687885772	38.1711219060217	1.09002260586242	83.2205147097413	2.08270873348978	83	2.82540007839314	105	0
4	T3-T5	348266	348366	100	6.00602189400286	8.21589555499178	32.0897318831619	0.605267770582102	83.2205147097413	1.12469356236242	114	1.67425427671503	113	0
4	T3-T5	349027	349087	60	10.8465042292787	7.42580175045247	53.2984268176027	2.10357524322118	83.2205147097413	3.99614902732125	61	2.82020173584665	95	0
4	T3-T5	349920	350013	93	7.28808750300887	6.63780450603352	41.4146979738589	1.32516721395253	59.8822251926438	2.21137363883269	100	2.41702425543115	99	0
4	T3-T5	350237	350339	102	8.44898911570679	6.01717943687839	45.1959297264163	2.01810532792402	59.8822251926438	2.85705492567815	85	3.17511961575316	84	0
6	Fp2-F8	12810	12869	59	7.70755922668815	1.50781466143392	31.0908655305765	26.12990419721	31.0908655305765	1.2916801930531	91	1.88806798921298	95	1
7	F8-T4	40042	40091	49	2.15186684539377	1.19957242036167	6.49241750519379	3.21793927273072	7.92330217104181	0.104514668568381	120	1.36003427143916	192	0
8	T4-T6	363067	363123	56	1.56759067662029	1.09962437254556	5.47391153934655	2.03224764653508	7.21606125739573	0.091881236446559	118	0.935121834139908	193	0
8	T4-T6	368155	368199	44	1.70958531534513	1.0604210244626	5.39711264258344	2.59911142399534	7.44650635885587	0.151954136104033	154	0.897530995466391	226	0
8	T4-T6	413361	413460	99	7.12637956067415	1.51670708818053	30.7986757108648	22.0767157900178	30.7986757108648	2.30028191751701	118	2.48720556937741	117	1
8	T4-T6	430039	430081	42	1.55901482700207	1.06211685533616	4.87577595289587	2.15454658742446	7.30460531035748	0.121349225622683	95	0.819348875726206	216	0
8	T4-T6	488078	488142	64	1.67203781570574	1.10467806640578	5.57268647963586	2.29097699764133	7.6562173681688	0.228629410921419	164	0.873740232003203	201	0
8	T4-T6	522078	522124	46	1.62012437271396	1.13484503061769	5.59639063800704	2.03809109030985	7.93212297375413	0.194024126447056	155	0.863209564428679	157	0
9	T6-O2	90536	90581	45	2.14548503773455	1.06212965200771	7.9052202739866	4.08033587281062	7.93463825108712	0.152460851179031	108	1.14515667315019	192	1
9	T6-O2	300414	300464	50	1.81285063272672	0.961133528736964	6.23109758278431	3.55759568417771	7.68675804012827	0.227503307464615	140	0.974371068615996	200	0
9	T6-O2	417937	417999	62	3.28654598132752	1.06538097390268	11.6680258739457	9.51633128068236	11.835267711535	0.519854334963497	110	0.542500217803642	110	1
11	F3-C3	162178	162238	60	2.75857042131949	0.993847235236513	11.2574902628212	7.70422366613188	11.2574902628212	0.716637002037558	95	0.767117621921759	98	1
12	C3-P3	427438	427494	56	2.12090168825398	1.0285130117531	6.80162279710919	4.25227648629472	8.10199969789877	0.427525802862989	125	0.483892766401117	139	1
14	Fp2-F4	12819	12920	101	4.56299531638107	1.08835485932123	23.6331890343897	17.5775768224448	23.6331890343897	0.802069558914215	106	2.66669087361973	105	1
16	C4-P4	548538	548578	40	1.69871177783049	1.02270286940503	5.18873786130222	2.75892850915517	7.03831318331631	0.0862500751900892	141	0.905361549132955	201	0
17	P4-O2	417936	417999	63	3.59060874825323	1.0442367586435	13.3869638955712	11.8232865547742	13.3869638955712	0.332532524924954	232	0.977616816716108	300	1
17	P4-O2	502966	503006	40	1.79297185646772	1.02461375083338	5.49192162813054	3.06215087719959	6.20173613112954	0.2695043339368	183	1.00325163795591	187	0
18	Fz-Cz	5236	5277	41	1.97748001790003	1.0156334002872	6.91735047515885	3.79096921765666	7.26862633897226	0.327654025908255	65	1.04251748698288	82	0
18	Fz-Cz	312319	312441	122	8.57213848541134	1.14839319052521	62.1049837038362	55.7182079470596	62.1049837038362	1.94452235279727	83	3.84071625572478	82	0
18	Fz-Cz	327149	327261	112	8.05364201579426	1.1268170667015	49.4747846951664	51.0831665253502	49.4747846951664	0.883666917411396	NaN	6.35674262737121	300	0
19	Cz-Pz	312324	312466	142	8.46784745431185	1.03860838887567	65.4904930992048	66.4725591732677	65.4904930992048	1.80054677292044	83	3.42169773713079	82	0
19	Cz-Pz	327147	327260	113	7.50245172072215	1.1157129761119	47.8201647563678	45.2169693466904	47.8201647563678	0.850828000208676	NaN	5.76662631296847	300	0
20	Fp1-Fz	12806	12855	49	2.14277467876678	1.09572046927556	7.84057423575283	3.82431328068691	7.84799896278309	0.442616923559707	163	1.03724622422376	196	0
20	Fp1-Fz	99111	99164	53	2.97008105576054	1.52757392011253	9.98029632618096	3.78035106764781	15.827248998172	0.32674177442375	156	1.73798812254332	155	0
20	Fp1-Fz	187164	187232	68	1.91565565223905	1.02070188509683	6.58887166273614	3.52238689783235	7.04004547163996	0.247863119441711	172	1.10596512125308	171	0
20	Fp1-Fz	320434	320506	72	5.03670824340001	1.00028553565627	24.3027507937715	25.3539489491063	24.3027507937715	0.332573778520156	NaN	3.34543329832732	300	1
25	F4-Fz	292148	292193	45	1.80633181838941	1.0459265535111	5.9581573727297	2.98258401872801	6.88013576898933	0.141551523831711	167	1.08337823974865	223	0
26	T3-C3	331131	331297	166	5.47514802174371	4.82363324549721	28.0525493280524	1.49705257395494	36.4486357908015	1.37611109266706	122	1.27140753097416	121	0
26	T3-C3	331796	331858	62	7.63062123620402	7.3082575667946	36.4486357908015	1.52158974547313	80.9643840821558	3.32362998530851	61	3.95083559872778	89	0
26	T3-C3	332168	332541	373	8.86513246967907	8.14288780751786	66.495458010247	1.52990959488764	82.877883283564	2.09121955534979	118	2.14286859745705	117	0
26	T3-C3	332673	332804	131	12.8045122251284	9.17756818206825	80.9643840821558	1.99856107265858	94.6841774022777	3.35050323170533	94	3.80962217885068	102	0
26	T3-C3	332981	333136	155	12.0451891611997	9.67851061290108	67.4946455981419	1.6079612005987	94.6841774022777	1.34096735010534	NaN	5.01689572669485	300	0
26	T3-C3	333306	333505	199	8.28929057657314	10.4835180126151	47.8040352801034	0.701442799625968	94.6841774022777	2.68183068112592	129	2.6869515182254	129	0
26	T3-C3	333861	334218	357	11.2097493324034	11.2468761729236	66.8300091813383	1.22054456798503	94.6841774022777	2.60221847096004	117	4.95699815715847	116	0
26	T3-C3	334373	334437	64	9.03753635659625	11.9850124085499	38.385868060829	0.713998270066229	94.6841774022777	1.09610736486918	NaN	5.04892057338969	300	0
26	T3-C3	334556	335009	453	12.9297574491053	12.303798282767	90.7837901242088	1.37597436211014	94.6841774022777	1.90182733281246	NaN	5.54947296371996	300	0
26	T3-C3	335104	336388	1284	13.804479065773	12.6845673709439	95.9917080650715	1.47203836249228	93.6456925407473	0	NaN	-1	300	0
26	T3-C3	336497	337726	1229	13.5560590060199	13.4257662588325	85.3065599817913	0.988280262621842	95.2822942181298	0	NaN	-1	300	0
26	T3-C3	337811	338149	338	13.8742436171379	12.8184893830546	87.3251599151622	1.41782784303914	87.3251599151622	2.88196559320648	141	3.21374624020222	140	0
26	T3-C3	338249	338925	676	12.2897163476468	12.661658921917	75.1077884817805	1.13113271164565	87.3251599151622	3.85093909618479	81	4.02348280812403	87	0
26	T3-C3	339028	339645	617	12.2542796698961	11.2497524138428	72.203323425281	1.13713678568724	79.1380438009224	3.42683451527578	100	3.09074619004662	99	0
26	T3-C3	339917	340755	838	9.92971601257101	10.4595685228366	68.4196371933402	1.19056137583372	72.203323425281	2.97328820739536	83	3.26013023453563	82	0
26	T3-C3	341012	341122	110	10.8963536516269	9.28496498516725	49.3206430100855	1.63868825782869	66.2332700049309	2.68097303046899	169	4.27499026164294	168	0
26	T3-C3	341244	341456	212	11.1653275882807	8.75294277849382	64.9990709272012	1.93398736277531	66.2332700049309	2.08123846336542	107	2.32589509046485	119	0
26	T3-C3	341543	341762	219	8.80656974954302	9.02175611293083	54.2926461691557	1.18987588563487	66.2332700049309	2.54815728943856	83	2.43814911799254	82	0
26	T3-C3	341999	342243	244	10.1681337177422	8.81545111215334	56.5870374399199	1.67724767657417	70.6711569184423	2.89668636764614	114	3.16799864098585	113	0
26	T3-C3	342549	342608	59	11.4085782930571	8.4894967166519	46.6747709055308	2.13595201678152	68.9208616631395	3.16305779555618	133	3.94836813399975	132	0
26	T3-C3	342724	343031	307	8.9686229398719	8.58106531204603	66.0622127978149	1.19383346726352	68.9208616631395	2.34785344573596	138	2.79762205998576	137	0
26	T3-C3	343144	343411	267	8.27921956496102	8.55245262109973	46.0028689215981	1.13227750451135	69.206244425359	2.38363074026944	83	2.45177350572486	82	0
26	T3-C3	343779	343847	68	7.69892371897401	8.74592264020717	32.2435810047668	0.918134861109353	69.206244425359	1.58254461885389	87	2.06453540928582	111	0
26	T3-C3	344047	344091	44	13.6771875605513	8.61588256321226	55.0664476618699	2.89633662825484	65.6849255079583	3.45393652255709	85	4.0202796541369	103	0
26	T3-C3	344272	344640	368	9.68567761165216	8.82421296319727	58.1272862786016	1.56934384707715	65.6849255079583	1.87615427051218	186	3.43024148490333	185	0
26	T3-C3	344844	345070	226	9.95049649712359	9.22051510369409	53.9303122348608	1.65802227226869	72.0313480214238	3.18744538083517	91	3.00200970852763	90	0
26	T3-C3	345254	345304	50	11.7605647644132	9.10291506533459	46.1067266815932	2.62699854917453	72.0313480214238	2.18785518690144	106	3.41900054218301	105	0
26	T3-C3	345386	345435	49	18.5257496038683	8.82368463197113	72.0313480214238	6.43476586965291	72.0313480214238	3.25996180543737	136	3.75455307300739	135	0
26	T3-C3	345590	345968	378	9.86667378905051	8.59991032597464	60.8573044216422	1.86260109457906	72.0313480214238	2.84280854341896	117	3.1304294443659	116	0
26	T3-C3	346097	346157	60	10.287162569298	8.67173100079094	54.6076092445107	1.99815833222608	72.0313480214238	1.96922010863206	175	4.07849044250467	174	0
26	T3-C3	346329	346494	165	8.77585609298662	8.67229784100588	46.8882584872368	1.49915593316911	72.0313480214238	2.54053559726607	163	3.67855741385178	162	0
26	T3-C3	346798	346845	47	12.3619094209479	8.40595915308718	51.4844606263592	2.79146180372034	66.3285811618572	2.06383350393702	192	4.94493245900468	191	0
26	T3-C3	347257	347492	235	9.11037101817835	8.09371626917749	58.0361451295329	1.54042436227699	75.8915703597282	2.01147735897501	174	3.01112539974576	173	0
26	T3-C3	347660	347749	89	13.355057679474	7.90740375669314	61.4135589845092	3.21132462160998	75.8915703597282	2.95920120918281	120	5.50609133272477	119	0
26	T3-C3	347907	348107	200	8.36552014363795	7.937911469864	47.5879453915891	1.35190416786569	75.8915703597282	2.47427414562659	103	2.73966296030436	102	0
26	T3-C3	348294	348477	183	7.42380728253671	7.85803862641206	44.9041659597004	1.11108446067498	75.8915703597282	1.82514774907103	106	1.78333032108082	105	0
26	T3-C3	349029	349098	69	9.80761379809174	7.16578094661544	49.9652019874585	2.29583600274475	75.8915703597282	3.51942759900194	61	2.3294976428196	97	0
26	T3-C3	349685	349762	77	14.230937137345	6.25364059278501	60.20149198106	5.91456285833157	60.20149198106	3.32259843540609	130	3.46332086554494	129	0
26	T3-C3	349958	350013	55	8.50924824825599	6.38783222197334	40.1018351382474	2.43701105674156	60.20149198106	3.31220906583831	98	3.23075242155691	97	0
26	T3-C3	350264	350340	76	6.38872796881588	6.06953356238538	28.17546627805	1.51229493209057	60.20149198106	2.38344848209438	84	2.92702674446918	83	0
26	T3-C3	350495	350592	97	7.89599680916645	5.67546410814994	40.0366911751882	2.69236651877969	60.20149198106	1.61116679645266	106	1.68024863277641	108	0
27	C3-Cz	312274	312437	163	7.90370893318782	1.10185974780108	64.5844766784768	51.4528268785119	64.5844766784768	1.6392791118957	83	1.43510504097168	82	0
27	C3-Cz	327145	327257	112	7.59474953955545	1.08391466866939	48.1071176924881	49.0949390433929	48.1071176924881	0.805977076385138	NaN	5.90316083909978	300	0
30	T5-P3	338759	338877	118	3.54865381127518	1.89863063273546	14.6190521660212	3.49338378895639	15.4249248321869	0.55548425024477	127	0.519822757031331	126	0
30	T5-P3	379544	379597	53	2.70765949914941	1.32120048831539	11.0182134479328	4.20001311660957	11.6558750643982	0.53681145057236	163	1.25288339176811	162	1
34	Pz-O1	346662	346756	94	2.4447984933219	1.1802485083355	9.33987556522061	4.29080934753399	9.33987556522061	0.34473632967728	151	1.38416157666746	150	1
35	Pz-O2	417939	417999	60	4.22186994531129	1.07408169891424	16.7589110582937	15.4502342326189	16.7589110582937	0.418974924533478	NaN	2.0597226187206	300	1
36	O1-O2	334596	334654	58	2.03142733591107	1.21349031154729	6.45935373852587	2.80239892615913	7.77298030940303	0.317501802485325	176	1.08835236241052	175	0
37	F7-C3	338040	338089	49	2.04374336173153	1.60210425225241	7.44146637441489	1.62731329474494	11.7879195949165	0.432670750484765	177	0.43902547251373	179	0
41	T5-C3	332415	332497	82	3.05778819565198	1.81992277790508	9.86420357477338	2.82298700084703	11.4002507573998	0.451628887150633	95	0.616731977871112	123	0
41	T5-C3	336395	336453	58	3.76225911230585	3.49092100071687	12.9817343081172	1.19481625474728	46.4895329812981	1.24354589085088	85	0.495692643433706	84	0
41	T5-C3	337030	337092	62	4.75771634868301	3.32394971313247	20.7611049124717	2.04737735244936	46.4895329812981	1.50556443614498	83	1.21162276851103	82	0
41	T5-C3	337750	337792	42	2.54182666552421	2.26015415267561	8.45652937888038	1.42365979516745	20.7611049124717	0.473330231531919	61	1.44564199301264	82	0
41	T5-C3	338834	338878	44	3.78314102181788	2.19844963904343	14.7977402794128	2.9612291651345	15.3010241146343	0.737958744123575	132	2.09048668360382	131	0
43	T6-C4	61775	61822	47	1.87509060824439	1.0046778801402	6.39059332616145	3.48329964910189	7.35879629070977	0.479186614119121	176	0.913916956902432	182	0
43	T6-C4	260215	260270	55	1.74357019291741	1.05475864481672	6.0867197578562	2.73257873808761	6.75783997466035	0.27425636143252	168	0.926271272047307	167	0
43	T6-C4	262550	262594	44	1.70117597206286	0.984653051376027	5.58564579311061	2.98491533900979	7.03341658183032	0.335140209100209	186	0.939692822692014	185	0
43	T6-C4	339509	339562	53	1.82796701286848	1.21437051148596	5.98754863358404	2.26586631492103	9.13383862548526	0.228993311070602	157	0.980981206943585	169	0
43	T6-C4	413352	413411	59	4.68189111932845	1.3941053036167	23.7547963315477	11.2785030290397	23.9691950658365	1.19336829406611	113	1.28427743886731	115	1
43	T6-C4	468269	468313	44	1.82942614196789	1.079986784371	6.4735885525359	2.8694117952254	7.05551897075409	0.430183355017531	135	0.496615974904003	163	0
44	C4-Pz	103530	103576	46	2.00085991326759	1.04253377491979	6.23065437371738	3.68343575330615	6.66505908892315	0.475678059866494	167	1.023879047054	166	0
45	T3-P3	331256	331296	40	7.50537153496637	4.88739657079021	24.0034178955683	2.53475615111552	58.7442432092022	1.57646901637935	105	2.14120290628661	137	0
45	T3-P3	331495	331546	51	5.15186255451738	5.97853935333082	20.4088324342242	1.05566764178701	68.3809440962436	1.99241389143574	103	1.00369601173666	102	0
45	T3-P3	331798	331850	52	8.08205043270911	7.26205006533122	35.1566322411751	1.77885988699331	81.9798535726312	3.73130059009258	90	2.10121043339398	89	0
45	T3-P3	332282	332541	259	9.6736159823855	8.16479086220992	68.3809440962436	1.85662228965636	82.1020645093378	2.45014516008507	105	2.31881431699696	104	0
45	T3-P3	332673	332804	131	12.8581676254069	9.06420422245728	81.4547163576718	2.05210260604325	93.2721562980419	3.31666706567647	93	3.96920837978413	102	0
45	T3-P3	332981	333171	190	11.0266545492335	9.71694912273542	64.2715254444643	1.3572764924099	93.2721562980419	2.02673446480168	136	4.77163235754396	135	0
45	T3-P3	333306	333506	200	8.34698795261471	10.4923898982206	47.7346440220096	0.698352747057167	93.2721562980419	2.7415174358481	126	2.76639798198417	130	0
45	T3-P3	333665	333760	95	5.30295992476452	10.8336958801396	19.6843329974111	0.280438077980764	93.2721562980419	1.71919375077441	86	1.63761117634443	85	0
45	T3-P3	333862	334247	385	11.9640113990474	11.1254851769641	79.7405784634604	1.3866171418462	93.2721562980419	2.99780376840343	117	5.01358930391425	116	0
45	T3-P3	334373	334438	65	9.25335949753875	12.0774249163939	40.2906471918273	0.76644250357446	94.1193480438439	2.0618421666957	98	4.64223467735684	97	0
45	T3-P3	334556	334732	176	12.9863387012644	12.5533094586658	50.0405983648982	1.45053545246188	94.1193480438439	3.3914059114457	91	3.71768594475386	127	0
45	T3-P3	334922	335008	86	19.3365810199299	12.2670019251064	91.2963316914445	3.74928639421917	93.1801894158068	4.75559518966455	118	5.5300709820371	117	0
45	T3-P3	335104	335686	582	14.8243672377442	12.4348565941647	90.2105526237055	1.95042985512379	93.1801894158068	2.28803098035316	NaN	5.87765473669006	300	0
45	T3-P3	335819	336388	569	13.0568770519208	13.7773592839416	96.0100688632973	1.25295343632626	97.6473871073916	3.10427784793337	150	4.78004109874195	149	0
45	T3-P3	336497	337726	1229	13.3799780127456	13.3291730735231	82.6456669615192	1.09182057883256	96.0100688632973	0	NaN	-1	300	0
45	T3-P3	337812	338149	337	13.956763463943	12.6581850089614	87.2848941036736	1.4760676512592	87.2848941036736	2.93731872082824	141	3.18003254698345	140	0
45	T3-P3	338249	338924	675	12.1153926750008	12.562809554979	73.7565242941275	1.03871535727497	87.2848941036736	3.84005587431136	78	4.06354794848276	87	0
45	T3-P3	339027	339231	204	10.7324124653685	11.9475455397484	71.5473750678888	0.812155693580249	78.8586801641777	2.55310961280759	94	2.61577654681746	106	0
45	T3-P3	339366	339677	311	12.3556703125262	10.9323466347493	68.0958136388211	1.20437309610762	73.8212051024903	3.80231168640295	93	3.35478628436111	92	0
45	T3-P3	339918	340754	836	9.81545818889971	10.3849201317006	66.1701707180002	0.970373077289495	71.5473750678888	3.00983531567175	83	3.32222522321647	82	0
45	T3-P3	341072	341165	93	10.8610827779463	9.09696491839939	42.9614667281937	1.78214922262532	67.3756559538819	2.63027112769552	141	4.0666347806653	140	0
45	T3-P3	341244	341761	517	9.52396520562903	8.82788870548842	65.6535236937042	1.48250486782889	67.3756559538819	2.1733381019266	115	2.25188481775106	128	0
45	T3-P3	341842	341886	44	14.1592126174799	9.07678993945267	65.4396577685316	3.20815789392505	67.3756559538819	2.07789766412206	112	5.93142482542745	194	0
45	T3-P3	341999	342243	244	10.3173129610982	8.83987658767906	56.0612020452096	1.85113616328908	70.3238428028218	3.00796193991661	114	3.24670444464807	113	0
45	T3-P3	342549	342607	58	11.9402187703542	8.5285709408335	48.5874424464575	2.62195881133598	68.3878446174715	3.33072792098986	130	4.06071951831878	129	0
45	T3-P3	342724	343024	300	8.97640256728858	8.57611958911798	66.9155576128038	1.34089944324815	68.3878446174715	2.25421063366545	138	2.80903646587371	137	0
45	T3-P3	343296	343428	132	9.29646312565274	8.48484351031633	47.4127493065727	1.37553493097023	67.9677446964146	2.49297660323051	83	3.31760213318276	82	0
45	T3-P3	344047	344640	593	9.3878725427254	8.79308640885083	63.1545813950569	1.40192523309578	64.7049913351183	2.67842850949974	83	2.8941387963959	124	0
45	T3-P3	344843	345090	247	9.93676679172482	9.28718460766039	52.3295116337806	1.45127523311109	72.6989717714643	3.23866868759317	91	4.11148340856846	90	0
45	T3-P3	345255	345436	181	12.3580279675317	8.9621286669045	72.6989717714643	2.49923896190978	72.6989717714643	2.27113639099966	120	2.43456759200561	119	0
45	T3-P3	345591	345903	312	9.85143196180738	8.90562206930668	61.9709167030383	1.59566973627985	72.6989717714643	2.62456894739787	70	3.18322150972558	113	0
45	T3-P3	346108	346158	50	11.2274438312501	8.7247327837919	54.1459206859704	2.19816543768526	72.6989717714643	2.12075726128002	181	4.86587269536849	180	0
45	T3-P3	346329	346504	175	8.8558633684204	8.70990235567713	47.7594166391498	1.47619879468396	72.6989717714643	2.55244654640973	162	2.81898441942171	161	0
45	T3-P3	346798	346845	47	11.9084089372077	8.47673019832537	49.7701488849706	2.53112876497112	66.3896596220784	1.71070210475523	145	4.83204577327136	192	0
45	T3-P3	347378	347491	113	11.5579412736083	8.01440887445221	57.9770687510338	2.44407272724145	79.9057521773962	3.54075636957046	120	4.38384322219311	119	0
45	T3-P3	347661	347749	88	13.3351886020581	7.91612067544603	59.9864714533527	3.28435264574858	79.9057521773962	2.86712707684618	120	5.52391936682481	119	0
45	T3-P3	348014	348107	93	9.71262211637386	7.98146460989032	44.5493805244882	1.83800168887384	79.9057521773962	2.90996944424827	106	2.43309961512838	105	0
45	T3-P3	348913	349088	175	8.64536768329509	7.33666931135627	50.7448311188366	1.64545715714799	79.9057521773962	2.2673826417626	117	2.62530975197924	116	0
45	T3-P3	349686	349762	76	13.7845916283912	6.29916076015067	57.5383823925628	5.67330696488073	57.5383823925628	3.33764907383309	129	3.18249566498003	128	0
45	T3-P3	349949	350013	64	7.87183668219646	6.39922889998875	39.6849055033207	1.99993421939667	57.5383823925628	3.16705171805548	98	3.01810036968066	97	0
45	T3-P3	350237	350305	68	8.98757132773638	5.97874255801702	45.3447930429934	2.84076327039835	57.5383823925628	3.20787599930835	61	2.79001052170627	83	0
46	P3-Cz	312332	312425	93	9.8483883799428	1.19270514696805	62.715772992732	68.1811225531062	62.715772992732	2.18243028103825	83	2.12888211144111	82	0
46	P3-Cz	327153	327259	106	7.991433035458	1.17865641731451	49.3972800666181	45.9700397235495	49.3972800666181	0.84002786529554	NaN	6.29279958336763	300	0
48	P4-Cz	300577	300626	49	1.72762360523734	0.994154269392341	5.68501246925944	3.01988701600617	7.733289394722	0.261581398711775	158	0.9068011579552	157	0
48	P4-Cz	312346	312428	82	10.3521071063943	1.21377185050793	62.9899220601288	72.7416907053734	62.9899220601288	1.4540100844448	NaN	6.28830527856111	300	0
48	P4-Cz	315220	315267	47	4.51587384868381	1.09542979933802	20.9859864445366	16.9947390591461	20.9859864445366	1.18006906868402	83	1.02310910120059	82	1
48	P4-Cz	327116	327258	142	6.91251427255892	1.13791765027634	49.0775636191917	36.9020433229975	49.0775636191917	0.784744089058287	273	0.786667954473643	300	0
48	P4-Cz	403437	403502	65	4.0873185599378	0.984731984702107	18.5457457564881	17.2282389271545	18.5457457564881	0.952446663029192	83	0.696659547694996	82	1
49	T3-F3	331131	331296	165	5.59630414565434	4.74247591132023	28.2606428130283	1.48987268923251	35.6946583782667	1.33863082316128	106	1.33317333421779	123	0
49	T3-F3	332168	332242	74	7.76034570661747	8.3578313017832	32.1096603429505	1.31372686252277	82.023878716545	1.82126037966158	97	1.57324860615745	123	0
49	T3-F3	332384	332542	158	11.2761476477172	8.23462191143737	68.8386184127001	2.66293449743831	82.023878716545	2.9088667777053	83	3.07978219297365	82	0
49	T3-F3	332673	332804	131	13.0169701141569	9.09504374539138	80.7916352514133	2.29916275210662	94.2641955604884	3.39726114932355	94	3.91492514899967	103	0
49	T3-F3	332978	333522	544	9.49598554251966	10.023676258001	65.400309379161	1.14517827533849	94.2641955604884	2.21305904824759	133	3.54548013092176	132	0
49	T3-F3	333640	333726	86	9.58248313290937	10.8078451814538	56.2434397963444	0.915385211168037	94.2641955604884	2.68369321321657	61	2.72073506928879	90	0
49	T3-F3	333858	334248	390	11.5557769025227	11.03068141003	77.5204703460884	1.39668312415586	94.2641955604884	2.84843789040511	117	4.83396482642308	116	0
49	T3-F3	334513	335009	496	13.0071853972339	12.017651891666	88.8873985693757	1.67616110657	94.2641955604884	2.00946710180972	NaN	5.47894493091925	300	0
49	T3-F3	335104	336388	1284	13.6023848555841	12.5177290703969	97.4803705405779	1.4132527224553	91.4474279127351	0	NaN	-1	300	0
49	T3-F3	336497	337196	699	13.139613305	13.5652718367794	78.9893271872575	0.846368718434152	97.4803705405779	2.96473914524272	172	4.7270260995155	171	0
49	T3-F3	337392	337725	333	13.6317384986284	13.255123138447	71.7621527329891	0.907198088019541	87.4633115943215	3.23808517448164	112	3.17558769049985	111	0
49	T3-F3	337810	337899	89	12.7033519911564	13.3378847669616	58.4215832763524	0.766846678990299	87.4633115943215	2.12656281841856	97	3.81604828360642	119	0
49	T3-F3	338006	339706	1700	11.841170129836	12.4420076491927	80.1706384186933	0.903026912778155	87.4633115943215	0	NaN	-1	300	0
49	T3-F3	339918	340436	518	10.5381657594241	10.3778499592762	70.3643211011233	1.12047466190805	72.6184508534541	3.39859098249082	83	3.77333617341247	82	0
49	T3-F3	340667	340755	88	9.83741488337536	9.80934860125866	47.0643530352258	0.976413924985503	70.3643211011233	3.74186432645724	83	3.33675777298747	82	0
49	T3-F3	340862	340951	89	7.67109229498601	9.4821650310627	38.8517492812272	0.867351977906298	70.3643211011233	2.44665393614983	110	1.26409193103657	109	0
49	T3-F3	341072	341761	689	9.3797941016383	8.85606853359824	64.7515363432042	1.39504619238322	65.2968855781191	2.2412110659744	134	3.40919752309002	133	0
49	T3-F3	341840	341887	47	13.3042589109894	9.04650820457407	62.908694856095	2.88435840622919	65.2968855781191	3.53582555456147	180	5.41097806694497	179	0
49	T3-F3	341999	342243	244	10.2765808207382	8.75708495170915	56.2369149423212	1.89837114740956	70.1050443703879	3.01472825525584	114	3.30222785355174	113	0
49	T3-F3	342549	342609	60	10.8987470793605	8.44416461281351	44.51692978945	2.37748904087425	67.7168536483638	3.1047480917698	132	3.83000532101961	131	0
49	T3-F3	342816	343031	215	10.121519636453	8.31423648458685	65.0985030473965	1.88549425905364	67.7168536483638	2.73761952765086	134	3.27281225142449	133	0
49	T3-F3	343297	343413	116	9.78242582876591	8.29861197092357	49.0665598306227	1.6517809324586	68.9281538656979	2.90824881068627	83	3.4988970617753	82	0
49	T3-F3	343753	343818	65	9.4956980078253	8.73956131201668	39.0843882061848	1.45777145216204	68.9281538656979	1.69400686045531	90	2.78202330446688	112	0
49	T3-F3	344046	344092	46	13.6323700652566	8.70743919820751	54.879928901746	2.95023053155204	64.2866921517583	3.59947948200328	85	4.17040245112398	103	0
49	T3-F3	344260	344640	380	9.455552139209	8.94510888186906	57.4372952185584	1.44307523651587	64.2866921517583	2.69831174604412	62	3.27088318847274	82	0
49	T3-F3	344844	345070	226	10.339960971438	9.2035676623851	54.7990088715515	1.67557195775998	71.6736846811214	3.31887766139777	92	3.22096722841621	91	0
49	T3-F3	345218	345434	216	11.3031715923661	8.82959001139883	71.6736846811214	2.2030635335009	71.6736846811214	2.17988653176033	115	2.21335756237184	114	0
49	T3-F3	345738	345826	88	12.7941460914168	8.7540361123401	59.3285166438666	2.78124645318505	71.6736846811214	2.67377458940689	73	4.42496115457915	114	0
49	T3-F3	345918	345969	51	11.4832404363844	8.71196202108814	42.6225622916478	2.38448598243873	71.6736846811214	3.28501306321331	111	3.83561890909431	152	0
49	T3-F3	346107	346157	50	11.3524072617674	8.56858396007575	54.9739294854437	2.26018661476508	71.6736846811214	2.06853671499417	178	4.87861152177023	177	0
49	T3-F3	346798	346845	47	11.9030601810419	8.38573865460723	48.3696446525556	2.6112992056614	64.2980975717572	2.36690078224943	189	4.76618553325306	188	0
49	T3-F3	347378	347494	116	11.6117379586245	8.01814359270161	58.0388343617434	2.47870706519166	80.7026802956159	3.53629599492314	120	2.47175409560136	119	0
49	T3-F3	347662	347749	87	12.9999680090282	7.98178057429108	59.3003430114516	3.12406471484332	80.7026802956159	2.96097367178388	120	5.16912750918428	119	0
49	T3-F3	348014	348107	93	9.98510070579455	8.01689276870399	46.2988677985365	1.91796497878988	80.7026802956159	2.94376772724578	106	3.06037420352653	105	0
49	T3-F3	348294	348404	110	8.10577676288789	8.00958941312307	46.4918345100239	1.31352161103103	80.7026802956159	2.08848589512792	109	2.52404315676385	108	0
49	T3-F3	349017	349088	71	9.72079707959658	7.39817784932083	50.9383610596308	2.2096690962481	80.7026802956159	3.51834394062313	97	2.16745509115553	96	0
49	T3-F3	349545	349588	43	9.58952792703067	6.66022306615962	43.0194973654195	2.83883107820595	59.0040092575294	2.80226859725034	68	3.16032233834184	84	0
49	T3-F3	349685	349762	77	13.9419515899008	6.34375646448702	59.0040092575294	5.81540670069626	59.0040092575294	3.21996966719462	130	3.25518826302645	129	0
49	T3-F3	349948	350001	53	8.8797464968246	6.42813218907227	43.3119286545851	2.84016666305536	59.0040092575294	3.70235225805777	97	2.71221929531474	96	0
49	T3-F3	350238	350338	100	8.66745098079049	5.91384430268612	46.4953012879682	3.07368081490781	59.0040092575294	3.08485480875758	84	3.30025718359658	83	0
49	T3-F3	350875	350932	57	7.56377856136868	4.82413497437308	28.4682950107953	3.04197884144826	51.1233354166774	1.69359753595777	78	2.18166871038294	117	0
49	T3-F3	361933	361993	60	5.29640666388601	2.58323986160746	22.8680647029861	4.20371417746932	26.4544510437769	1.00562180594976	133	2.52062440921426	132	1
50	F3-Cz	312320	312417	97	9.7877203194575	1.25498260590069	63.8171808494481	60.8257803131845	63.8171808494481	1.12338949267591	NaN	5.86313499058963	300	0
50	F3-Cz	327121	327260	139	7.4275519949172	1.10215257753893	50.3806963114236	45.4159036689202	50.3806963114236	0.770992604088886	NaN	4.96678587381046	300	0
51	T4-F4	12821	12875	54	3.67298489760885	1.02053669834001	14.9772196555919	12.9533181442308	14.9772196555919	1.2681226940916	150	1.35123415333726	190	0
52	F4-Cz	312331	312426	95	9.78627329647223	1.22308119097413	63.6479571847427	64.0212434422037	63.6479571847427	1.11001867209818	NaN	6.09265117841774	300	0
52	F4-Cz	327145	327259	114	7.55260517715862	1.09843691754715	47.533668448819	47.2762828573049	47.533668448819	0.766594155638687	264	0.767116361232652	300	0
