nChannel	strChannelName	indStart	indStop	indDuration	Event_RMS	Window_RMS	EventPeak2Peak	SNR	Amplpp	PowerTrough	Ftrough	PowmaxFR	fmax_FR	EvPassRejection
2	Fp1-F7	11668	11720	52	2.26175028637247	1.36612236941703	7.30542300278608	2.74100673434909	10.2693237357386	0.244656730300833	165	1.33573039994669	164	0
5	T5-O1	2473	2519	46	11.2186843764553	5.52946877928807	53.1349783975495	4.11639497322516	58.9910252236683	2.73619543711215	135	3.22493072895809	134	0
5	T5-O1	6017	6061	44	11.1493955457945	5.21241655475948	53.0015218837028	4.57535098564788	58.4752412537627	2.23560927560031	NaN	4.23986593386077	300	0
5	T5-O1	19592	19642	50	11.7007575370059	5.14715529363169	58.427312988316	5.71185843477443	58.427312988316	1.75827115286637	NaN	4.64285133694292	300	0
5	T5-O1	19795	19841	46	11.4621417041258	5.20623033863505	56.1622017643826	5.42187601414869	59.3925524229994	3.21876362575851	128	3.54187294780655	127	0
5	T5-O1	30159	30206	47	11.7951296198003	5.65028509075004	56.6303880063166	4.35777410019343	59.9723670209221	1.79696945658669	NaN	4.72222624590353	300	0
5	T5-O1	34741	34797	56	10.9305823235807	5.57607611696586	57.1779447702417	3.84263568811255	59.7793234230532	1.67470422669421	NaN	4.26905521378019	300	0
5	T5-O1	47046	47095	49	10.6507195388907	5.37990377323472	51.4220434637625	3.91930337842601	57.1815638041931	1.76800365961476	NaN	4.46856181704722	300	0
5	T5-O1	48833	48880	47	11.8434621263007	5.25652715205552	57.2648198197481	5.0764431506633	59.0456417773136	2.87732942054515	136	4.10175064681565	135	0
5	T5-O1	52380	52437	57	11.2165321198469	5.26126976812544	59.5403780529682	4.54502281482742	59.5403780529682	1.82292478164583	NaN	4.13375058481282	300	0
5	T5-O1	63665	63723	58	10.6738483082334	5.31115846318638	56.4018133185953	4.03890403775666	57.9621850915758	2.95048250193976	129	3.83983377199133	128	0
5	T5-O1	67264	67324	60	10.88334973987	4.91388572490596	57.3484994636466	5.5458895165783	59.0982119483306	1.45418524322788	NaN	4.19526505089472	300	0
5	T5-O1	67463	67514	51	11.340699724465	5.24876944714042	54.7730059730556	5.20905473947787	59.0982119483306	3.03356759344263	80	3.36590987605684	124	0
5	T5-O1	69896	69940	44	11.9197204455532	5.57190954630284	56.4625041436022	4.57640050536085	59.276874610113	2.07428551215493	NaN	4.77843035179357	300	0
5	T5-O1	79338	79399	61	10.8188349540695	5.7741601743091	57.0085599639291	3.51061607441147	59.9893579222902	1.63284242284141	NaN	4.3240308405944	300	0
5	T5-O1	84328	84370	42	11.0901484591977	5.84109022033468	51.6036869748187	3.60484745177943	59.9329205208197	2.15276494580414	NaN	4.52341166640418	300	0
5	T5-O1	86132	86178	46	12.0073066965932	5.82151792397684	58.7146857246667	4.25420809430517	60.2166125054959	2.12373402270117	NaN	4.66301606401835	300	0
5	T5-O1	87478	87535	57	10.1830843553627	5.88414833827111	53.7808113680488	3.1743720004941	60.6773143491729	3.0549243911491	130	3.33564047588467	129	0
5	T5-O1	88239	88284	45	10.8510852825836	5.67834161598639	51.3324174339076	3.91058428912944	59.1019486584093	2.04397245015633	NaN	4.01790986150483	300	0
5	T5-O1	92528	92596	68	9.33970489823949	6.12388605967419	52.4698513892132	2.32601282621928	62.3368050579	1.51603259485279	NaN	3.86846389756917	300	0
5	T5-O1	105167	105231	64	10.2009402522677	5.52814351597022	56.166824736135	3.40503663842701	59.4279544757282	1.53648355024434	NaN	4.11451877319982	300	0
7	F8-T4	95446	95492	46	2.35654918065197	1.39894780811242	8.07191420162983	2.83759226310084	12.7591902009287	0.194806510261751	141	1.23218529123732	211	0
8	T4-T6	599957	600002	45	12.4362121013431	1.14682620209634	54.2436413165809	117.592880000143	54.2436413165809	1.32645503392924	NaN	4.63300702757618	300	0
10	Fp1-F3	210795	210889	94	3.14963683403065	0.991061217331829	12.0614005314944	10.0999680184432	12.0614005314944	0.519565650954667	104	0.501310671810177	103	0
10	Fp1-F3	573941	574079	138	5.50016192567772	1.0209129469408	30.7622435162565	29.0250868454636	30.7622435162565	0.905293761449214	83	0.869044948599038	82	0
11	F3-C3	276499	276565	66	5.70851090730926	2.13225906556211	24.9061187251643	7.16746748269057	28.0273215569775	0.349970147947479	NaN	6.39898149077677	300	1
11	F3-C3	400413	400586	173	6.75508136677115	1.36030788389697	36.9866807437205	24.6596403878349	36.9866807437205	0.808598838958124	83	0.333513011359162	82	1
11	F3-C3	581503	581618	115	4.67646952260295	1.05137429005609	23.357018158112	19.7843374615726	23.357018158112	0.229218277551021	NaN	5.92573338576431	300	1
13	P3-O1	7016	7067	51	10.5207281137904	5.09622928788403	53.3840919179469	4.73659002102567	55.9250115735958	2.84016947322446	123	3.19759543602105	122	0
13	P3-O1	7959	8017	58	10.5648710526921	5.03382513060601	55.860350522794	4.84002174401773	55.860350522794	1.73438150655575	NaN	4.18982162900497	300	0
13	P3-O1	19586	19644	58	10.6029560639579	5.24406378360829	56.3113008179008	4.49432796146926	57.6987776022321	2.82005366042734	132	3.00354037734349	131	0
13	P3-O1	19794	19854	60	10.3207509456895	5.22320513180741	55.3006535975209	4.3135357497061	57.377575473296	2.95952318313353	122	3.24155926620368	121	0
13	P3-O1	27050	27105	55	10.6312963166165	5.53496312907578	55.0975137508924	3.68929158837667	57.1998127399291	2.78311113411928	124	3.33635217608328	123	0
13	P3-O1	28784	28831	47	11.6386831103496	5.52116923997863	55.9033041633092	4.77612518431916	57.035159935305	1.89008901431629	NaN	4.81889458258729	300	0
13	P3-O1	29379	29435	56	10.1392680033606	5.70254806983525	52.6831474357532	3.73939101253549	60.2084306229836	1.48269221768008	NaN	3.96664218132733	300	0
13	P3-O1	30160	30206	46	11.451189001561	5.60315058455292	55.4195491489299	4.47535278185357	60.2158118543877	1.94821110709739	NaN	4.40587114667696	300	0
13	P3-O1	32035	32093	58	9.92587903836427	5.11154188209153	52.8578883403166	4.21213087526876	57.2293784971564	2.60785077004921	131	3.16939945545093	130	0
13	P3-O1	32814	32858	44	12.0440413063083	4.84611078355579	57.2293784971564	6.84115251193937	57.2293784971564	2.19747938459162	NaN	4.91946940076182	300	0
13	P3-O1	35302	35357	55	11.1192107871292	5.77450630972524	58.097955756783	3.70781627175308	58.1437868676369	1.62885785874312	NaN	4.39765404914317	300	0
13	P3-O1	39792	39844	52	11.1128272472238	5.43662055629	56.1517897601404	4.17821785369013	58.6813850118666	2.98646064200814	127	3.40113946395475	126	0
13	P3-O1	43326	43372	46	11.6716416792503	5.58075680309022	56.3739234836727	4.37398911276197	58.0527443400036	2.09765049545136	NaN	4.4879380634634	300	0
13	P3-O1	46867	46909	42	11.4172134499554	5.12573828359707	53.205843920235	4.96143590922984	60.5217879766761	2.22028907549646	NaN	4.91446597326325	300	0
13	P3-O1	48195	48240	45	11.2461333232246	5.18172609355792	52.9126781196807	5.20128656792632	57.4304555763195	2.05791282459679	NaN	4.4553498983231	300	0
13	P3-O1	48832	48880	48	11.302580582174	5.17024094447445	53.8737497222991	5.23917952409103	56.4536458595921	2.4215128561585	137	4.0804568067827	136	0
13	P3-O1	58352	58403	51	11.0218234167934	4.74164580235208	54.7613752704521	5.40317058401793	56.6984222981646	1.55746585012327	NaN	4.19793400307324	300	0
13	P3-O1	67460	67525	65	10.3187536634144	5.19019643877554	55.8726978673479	3.95263670134662	58.2050303224748	1.47786959483955	NaN	4.23169337167852	300	0
13	P3-O1	81083	81139	56	10.2111547615033	5.22998419540038	52.8831875721419	3.81196552254927	56.8210918227779	1.64967672641208	NaN	4.04798068860803	300	0
13	P3-O1	84328	84369	41	10.8108998677368	5.6930499467872	50.1857918497591	3.6060662536892	58.4194815395168	2.69232350050877	155	4.4713355006218	154	0
13	P3-O1	88237	88285	48	11.1592669690761	5.47678059975786	54.223236388904	4.15164918378164	60.2436992307635	1.86814770246684	NaN	4.19149300945955	300	0
13	P3-O1	91697	91742	45	11.418550676027	5.94031101164139	54.8492262824768	3.69490775234998	57.8674376226883	2.92613885573744	127	3.17281265854041	126	0
13	P3-O1	98487	98550	63	10.2577984497633	5.15198327104609	55.4429626429205	3.96423539501983	59.1676255409143	1.47858864250993	NaN	4.03807225853122	300	0
13	P3-O1	101116	101162	46	10.8176451285445	5.17031752800704	51.5198362048247	4.3775491375669	58.6967736660818	2.60207379129905	124	4.12245529501799	123	0
13	P3-O1	105585	105632	47	11.3539387016116	5.29065991849693	54.4925156492493	4.60546406606363	56.7514497982485	2.03839981978893	NaN	4.26197041856521	300	0
13	P3-O1	110357	110407	50	10.1839300848899	5.14428143743427	49.6000565108096	3.9190551736791	57.6201707157808	1.57274338839545	NaN	3.82149141850811	300	0
13	P3-O1	113124	113183	59	10.0496560186034	5.06224181507827	52.9984328235398	3.94109242673074	57.0699770990562	1.54966618329752	NaN	3.9171211763302	300	0
13	P3-O1	117982	118041	59	10.8524452797979	5.34055061001157	57.3308773859325	4.12936373472892	57.9170635930151	1.37267574307946	NaN	4.00022954840587	300	0
16	C4-P4	599954	600002	48	16.0919827850546	1.11233234717019	70.9581679170956	209.290726142983	70.9581679170956	2.56183141174873	83	1.73118011928985	82	0
17	P4-O2	22885	22936	51	1.75422993570696	1.06004683099891	5.32567275552015	2.73856423279046	6.53942051625106	0.355540355159726	163	0.366674729005732	163	0
18	Fz-Cz	210771	210897	126	3.59807652765224	1.06283755490115	15.7942213713639	11.4605908714027	15.7942213713639	0.239725645862987	NaN	3.63387447725372	300	0
18	Fz-Cz	276271	276348	77	3.25393369726728	1.42475578848019	14.4726294433432	7.76710579241725	18.8754675687997	0.717203831833566	88	1.95441231929904	87	0
18	Fz-Cz	276497	276570	73	4.40261496593866	1.32194763975548	18.8754675687997	13.9569440477806	18.8754675687997	0.334774762628975	NaN	4.22894110328917	300	1
18	Fz-Cz	400454	400553	99	5.25477321472723	1.11133854174328	23.639952753794	22.3570862739826	23.639952753794	0.268342024779197	273	0.279610837100924	300	1
18	Fz-Cz	507243	507318	75	2.65111937902496	0.946204502789826	9.53856406969218	7.85034146788516	9.53856406969218	0.216288949779174	83	0.360637303750972	82	1
18	Fz-Cz	581500	581593	93	3.30966533053626	0.979564839820935	15.0137399014765	11.4156799574407	15.0137399014765	0.547251108403497	78	0.547927091987513	82	1
19	Cz-Pz	599942	600002	60	10.3479184453247	1.07214389256902	51.1924753917609	93.153642754821	51.1924753917609	1.88232501453928	68	1.91724713781327	82	0
20	Fp1-Fz	276274	276351	77	2.82037956331222	1.01085372950953	11.8825281625451	7.78463908983137	11.8825281625451	0.538716459753393	89	1.71133322814191	88	0
23	F3-Fz	573955	574031	76	5.4281434320819	1.03267200526307	24.9969388782697	27.6298051320742	24.9969388782697	0.705394861651235	273	0.743601785186443	300	1
25	F4-Fz	210813	210899	86	2.5648718739121	1.01119993622041	9.94302888246892	6.43364781168441	9.94302888246892	0.29656965900889	103	0.34900155309826	102	0
30	T5-P3	541195	541243	48	2.04308762966149	1.10867801991525	6.35176153929568	3.39596427988596	7.70288297507589	0.386664600479125	166	0.938779916459433	165	0
34	Pz-O1	7017	7068	51	11.0596197342714	5.36801401872957	56.0702779868043	4.70740889909168	59.3466951295059	2.8700565783626	123	4.04513391112641	122	0
34	Pz-O1	7960	8019	59	10.9719828157569	5.3517884218414	58.5803959077898	4.60517519965238	59.3610796529176	2.90158554026966	134	3.04428403177459	133	0
34	Pz-O1	19594	19643	49	11.7510893759275	5.47892490263023	58.6151445854291	4.60008189295005	62.371162661039	2.05160609821902	NaN	4.59218358809575	300	0
34	Pz-O1	21105	21151	46	11.8668638889477	5.46602286412054	57.5779610168152	4.71334287820525	59.8033297343686	2.10483896295705	NaN	4.58727274732866	300	0
34	Pz-O1	28785	28831	46	12.3057575880091	6.01799505384409	58.7621256356681	4.18131665534589	61.3021024515494	2.07507434374635	NaN	5.05205860187803	300	0
34	Pz-O1	35300	35358	58	11.6121636860472	6.10492144253039	60.6787288618343	3.89385083803829	61.9882181078293	1.71275296891514	NaN	4.92234036401962	300	0
34	Pz-O1	35505	35563	58	11.1417321805979	6.11117443814943	57.5326259135576	3.61046329193187	61.9882181078293	1.79566006142672	NaN	4.36805111501909	300	0
34	Pz-O1	36850	36898	48	11.4153195753217	6.07797044054305	55.1899890049626	3.52743468663703	62.7941909273343	1.93792482455169	NaN	4.42775753401549	300	0
34	Pz-O1	47047	47095	48	11.3303946285186	5.68641761710296	55.5645473546814	3.9702016843484	62.7269107496631	2.05965402986709	NaN	4.53602243931339	300	0
34	Pz-O1	48195	48241	46	11.6821498026016	5.44749792137407	55.7502569582175	4.59887277837311	62.4675094099108	2.12264013547789	NaN	4.67110953138231	300	0
34	Pz-O1	57823	57885	62	10.7257762740104	5.40466852661176	57.0117100885222	3.93839563066861	59.2833068639834	1.45550566805703	NaN	4.3272519540195	300	0
34	Pz-O1	62848	62893	45	11.6605031513272	5.39348623381946	55.3021511631958	5.15623990716706	59.048413914257	1.97379422753753	NaN	4.64135017201125	300	0
34	Pz-O1	63462	63511	49	11.6266189157	5.62621200729928	57.1012745643274	4.62961782360873	60.0082518786037	1.91240362620292	NaN	4.70895642306725	300	0
34	Pz-O1	67461	67526	65	11.2407166842501	5.46039942547718	61.0561080945283	4.23778753339365	62.5228021633614	1.73041986004376	NaN	4.63333440225449	300	0
34	Pz-O1	79339	79400	61	10.9072191044773	6.06922975909459	58.5127608338505	3.22969058469873	62.5456758375509	2.59778017869715	134	3.19002594363639	133	0
34	Pz-O1	83940	83997	57	11.7153100165948	5.87192025748179	61.4859676201374	3.9805883996321	61.4859676201374	2.91723529741221	131	4.52224241825641	130	0
34	Pz-O1	93786	93832	46	12.3592631019305	6.18885448331846	58.390122717963	4.27938586040803	64.5228458215743	2.29582413866376	NaN	4.78854962505115	300	0
34	Pz-O1	93963	94017	54	11.4237811751637	6.14199221128793	59.3662812179731	3.73335757513516	64.5228458215743	3.00512851189538	142	4.00839739926163	141	0
34	Pz-O1	105176	105224	48	11.6161444336306	5.68384584573735	56.7141097194472	4.57513671242066	61.7649106247519	2.01400245129964	NaN	4.60990868735542	300	0
34	Pz-O1	105586	105634	48	12.0129474120618	5.78522101917955	58.4874225465408	4.66717008891605	61.7649106247519	2.03659365214363	NaN	4.52481559840798	300	0
34	Pz-O1	110149	110204	55	10.7828558493742	5.77744523563882	56.3668144186651	3.4833404560446	64.4737850225234	1.64218473234731	NaN	4.20560506588373	300	0
34	Pz-O1	117776	117825	49	11.5331962232171	5.80536798234926	57.6250423668584	3.94675216063592	61.8339982037939	3.23977637662043	126	3.70096550506263	125	0
34	Pz-O1	119998	120048	50	12.4501925249438	5.3514624872989	62.5195787860564	5.4126153341834	65.0096566714186	1.8595674467545	NaN	4.39320759341891	300	0
36	O1-O2	109	166	57	12.0896150574338	5.63793800839865	63.1817536297581	49.5968693836269	65.6098654596804	1.52850915237542	86	1.48513590404092	85	0
36	O1-O2	341	396	55	11.8915832372761	5.72143420587094	61.3922178802913	49.3160787814437	65.6098654596804	1.0476286568922	NaN	4.62765843453683	300	0
36	O1-O2	585	630	45	13.7453015831843	5.71504105642938	65.6098654596804	21.2113456369555	65.6098654596804	1.828763104941	NaN	5.4429230424639	300	0
36	O1-O2	831	877	46	13.1167706620124	5.805349542009	63.2459072229735	21.24876498812	66.583760868115	1.85570029100276	NaN	5.11908767153747	300	0
36	O1-O2	1052	1095	43	13.3370729971884	5.97525202363627	62.9454171320557	22.8919538373408	66.583760868115	2.30039975306046	NaN	5.23983305678002	300	0
36	O1-O2	1249	1307	58	11.4014139356011	6.21828147863621	58.9356500079156	16.6893320279543	66.583760868115	1.5428298286267	NaN	4.83154542035858	300	0
36	O1-O2	1667	1716	49	13.2737938931571	5.92026398561902	64.1532278265918	13.031274015445	65.6389398953592	2.04131381907162	NaN	5.06835451940894	300	0
36	O1-O2	1874	1924	50	13.2277222260152	5.9354808189017	64.4502383190163	10.3143779832962	65.6389398953592	1.87488723779853	NaN	5.40855427426328	300	0
36	O1-O2	2084	2140	56	11.075157674087	5.95119936053602	58.3094434076957	7.36920848408485	65.6389398953592	1.74469748459525	NaN	4.50508026204969	300	0
36	O1-O2	2268	2318	50	12.3174282228399	6.24535158238515	59.4463790026093	9.05760370780559	65.6389398953592	2.00623794229944	NaN	5.40585562456037	300	0
36	O1-O2	2906	2955	49	13.1841900623441	5.87339117796893	62.8284560118759	7.195002014932	65.5261959921844	1.89554201421188	NaN	5.44201108363554	300	0
36	O1-O2	3135	3183	48	13.3308542707635	5.84888189139698	64.2617787247233	7.40435768210049	65.5261959921844	1.98568643904948	NaN	5.22740376030606	300	0
36	O1-O2	3975	4029	54	11.9413389545793	5.90818219739884	62.054515401339	5.92735999467245	65.5234589740501	1.64736145249501	NaN	4.6126953935706	300	0
36	O1-O2	4227	4283	56	12.2010361407997	5.86680068701108	63.6598186804137	6.11075245952675	65.5234589740501	1.77648310994906	NaN	4.74114861952234	300	0
36	O1-O2	4473	4532	59	11.9017991642774	5.91861032661908	64.1454411937494	6.80651104574037	65.5234589740501	3.07107702364173	127	4.36968039504823	126	0
36	O1-O2	5096	5155	59	11.5740935709127	5.96039159833491	62.4388778753908	7.9264966192591	64.3255557497124	2.85038792845434	129	3.91095974450723	128	0
36	O1-O2	5332	5385	53	12.7474534573525	5.89729185298151	64.1628145228799	9.62179309743986	64.3255557497124	1.654860981669	NaN	5.01093064664814	300	0
36	O1-O2	5534	5590	56	11.9859825669356	5.91549211751024	63.03704872318	8.54397149227306	64.2664538298035	1.97669161015796	NaN	4.64786240141472	300	0
36	O1-O2	5792	5838	46	13.0069040239616	5.90804483853875	61.5304937429707	13.3643272596722	64.2664538298035	1.96482815319568	NaN	5.2559346204849	300	0
36	O1-O2	6225	6271	46	12.7820340990616	5.54436424282768	60.5590089247469	21.3444584598992	64.1628145228799	2.84737098248547	155	5.06004442850023	154	0
36	O1-O2	6515	6570	55	12.2132243440349	5.78530358681457	63.9740042418473	19.6579389678305	64.7736214272568	1.87180401198495	NaN	4.54553103118878	300	0
36	O1-O2	6755	6813	58	11.4047918222441	5.80067320589795	60.3178527277835	10.8807011008331	64.7736214272568	3.714275621031	108	4.14357580853764	107	0
36	O1-O2	7019	7078	59	11.3853764188027	5.79702803254013	61.359351585313	11.0100690357824	65.2983494599291	1.82772109440398	NaN	4.2786644077409	300	0
36	O1-O2	7278	7338	60	11.8656234204385	5.47757797498627	64.7736214272568	19.2104387579989	65.2983494599291	1.70945016234826	NaN	4.57353902208611	300	0
36	O1-O2	7534	7579	45	12.1828509935548	5.86313712409798	58.6925963337685	19.9056860974296	65.2983494599291	2.163410747189	NaN	4.85407937846561	300	0
36	O1-O2	7957	8018	61	11.6669297988715	5.82554880453211	64.2505950069362	18.4887318979407	65.2983494599291	1.9858979547971	NaN	4.41630179638156	300	0
36	O1-O2	8202	8259	57	12.3018396592811	5.56448898297649	63.4971832605488	19.973845403152	65.2983494599291	1.4951444517411	NaN	4.87895416164639	300	0
36	O1-O2	8485	8531	46	12.5315352455514	5.88577212797797	59.0719930107822	13.1462324966797	65.2026982011332	2.13309658049172	NaN	5.15243231612475	300	0
36	O1-O2	8735	8779	44	13.4994602555714	5.9178198254855	63.6306380254321	15.1180311409412	65.2026982011332	2.37464968973847	NaN	5.27637694772815	300	0
36	O1-O2	8967	9022	55	12.2010239647197	5.92118955720486	62.6358957124529	12.31030716284	65.2026982011332	1.933959849861	NaN	4.76678488853289	300	0
36	O1-O2	9232	9299	67	11.385027858623	5.56290002718269	63.3508354199211	10.8639818022711	65.0218258359192	1.52842359198373	NaN	4.48619292078345	300	0
36	O1-O2	9687	9744	57	12.0284500713975	6.02821030710224	61.590494416514	11.6098590974779	67.133092209089	1.76922789390825	NaN	4.93902774909079	300	0
36	O1-O2	10128	10182	54	12.4087917178398	6.03948086244054	64.1888812761295	12.5937837832813	67.133092209089	1.99482700558259	NaN	4.7145718522343	300	0
36	O1-O2	10361	10407	46	13.4887132985289	5.94879466589053	64.8238286378939	11.578219458674	67.133092209089	2.1121387221756	NaN	5.01999492137924	300	0
36	O1-O2	10544	10598	54	13.1049489385619	5.93279350773127	67.133092209089	14.8123626710579	67.133092209089	1.56582538257399	NaN	4.75349366568675	300	0
36	O1-O2	10774	10832	58	12.2170196844584	6.28772691852457	63.2869984328281	7.23768178063029	67.133092209089	1.714239903664	NaN	4.81480930670172	300	0
36	O1-O2	10976	11031	55	12.4516156567553	6.31696517443561	64.4167704856747	9.24432430840687	67.133092209089	2.05443519646038	NaN	4.67611940238905	300	0
36	O1-O2	11409	11455	46	13.0794717766367	6.28924005381096	62.449407533143	10.3123629282502	67.133092209089	2.03272197598949	NaN	5.33387302032304	300	0
36	O1-O2	11978	12025	47	13.0450739091946	6.62962084062617	63.4071286585004	9.9984235396388	71.971881152741	2.1785871057622	NaN	5.22118687388695	300	0
36	O1-O2	12183	12242	59	10.7721694451958	6.6204140255058	58.0488846753066	6.84561486959218	71.971881152741	1.7206615988513	NaN	4.43657079284309	300	0
36	O1-O2	12386	12433	47	13.9000029086545	6.57805879442035	66.0568118548293	14.4800966025962	71.971881152741	2.27176606420236	NaN	5.50690117455967	300	0
36	O1-O2	12567	12624	57	13.5041335282731	6.5362134078921	71.971881152741	13.6998904085556	71.971881152741	1.70422682905037	NaN	4.61895779566098	300	0
36	O1-O2	12760	12830	70	11.2630052038602	6.29627708700962	64.6662648409349	15.5023026598748	71.971881152741	1.44913939869312	NaN	3.97654934209296	300	0
36	O1-O2	12987	13033	46	12.9055232068297	6.32214962543101	61.9578008057746	20.7433301650849	71.971881152741	2.28939308347483	NaN	5.25647176558271	300	0
36	O1-O2	13177	13223	46	12.2625601239128	6.41430953621058	57.9406052321852	18.4499075704823	71.971881152741	2.38664682616205	NaN	4.96949281479239	300	0
36	O1-O2	13367	13418	51	12.3590175069129	6.47276323199427	62.1344749457962	11.2189858922345	71.971881152741	1.97478890641908	NaN	4.82452608107044	300	0
36	O1-O2	13583	13641	58	12.0232642949911	6.37303510547468	63.5614299895879	8.25898396877248	71.971881152741	1.66474207640062	NaN	4.69705553121993	300	0
36	O1-O2	14110	14166	56	12.9441228324204	5.8855435491742	67.1316550252823	8.0134687041679	67.6487773447521	1.84020622167083	NaN	5.06424751387179	300	0
36	O1-O2	14983	15028	45	13.3418948154984	5.93640518622888	62.819108124475	8.59145220681364	67.6487773447521	1.92577751335962	NaN	5.38642182832265	300	0
36	O1-O2	15433	15500	67	10.7533203666139	5.52784664906533	60.6493579514778	7.51944115752821	66.186747329387	1.59323844638959	NaN	4.03273281322821	300	0
36	O1-O2	15721	15766	45	13.0484518579438	5.55554813052604	63.4397504523445	14.7106305487868	66.186747329387	2.3533608622294	NaN	5.08153169985895	300	0
36	O1-O2	15968	16013	45	13.4280172630001	5.52595727289321	64.3114728530091	25.4970821031393	65.8929658157563	2.18567214927762	NaN	5.37927957944835	300	0
36	O1-O2	16220	16266	46	13.7519421755896	5.48542166208455	65.8929658157563	28.0533726075478	65.8929658157563	2.2230700441283	NaN	5.56099191146732	300	0
36	O1-O2	16504	16553	49	12.9169352463959	5.17304752688353	62.4828266704227	65.1314864367568	65.8929658157563	1.98531643022926	NaN	5.36327830872248	300	0
36	O1-O2	16755	16814	59	11.5875100840179	5.17175216950028	62.0896886102312	20.3478076648974	65.8929658157563	1.69096375525832	NaN	4.46319106861052	300	0
36	O1-O2	17051	17097	46	13.4053255672241	5.09884826221546	64.2647453048513	27.2887322890253	65.8929658157563	2.0711687248365	NaN	5.41676025043625	300	0
36	O1-O2	17324	17383	59	11.3020880119773	5.47818630747171	60.7345213584086	11.5747060026977	64.2647453048513	1.83090083254423	NaN	4.29989787827878	300	0
36	O1-O2	17803	17852	49	12.3555888137712	5.51234987565264	61.3339061237512	9.34823229812606	65.9755081092289	1.9773937206193	NaN	4.88535293733719	300	0
36	O1-O2	18315	18380	65	11.33807233914	5.79313344281041	61.4639207971959	5.27555900146162	65.9755081092289	1.58029955978698	NaN	4.66139995047062	300	0
36	O1-O2	18515	18571	56	11.2955408833849	5.85604500149921	59.2672948572606	5.2348090364691	65.9755081092289	1.68807384825459	NaN	4.41877256617849	300	0
36	O1-O2	19375	19433	58	11.6356513727665	5.87802055331553	62.2238508901725	6.31373140305891	65.9755081092289	3.12222699671853	127	4.12899107853387	126	0
36	O1-O2	19585	19650	65	10.9660886352564	5.9368778586576	62.2726750306368	5.58916561391767	65.9755081092289	1.47495370710579	NaN	4.17885280814424	300	0
36	O1-O2	19794	19853	59	11.6635991195813	5.9125694548759	61.8418761696325	8.07468436103725	65.2014701899092	1.78173887133309	NaN	4.4162600307664	300	0
36	O1-O2	20254	20325	71	10.7815627972349	5.94372307308724	61.4347235275065	14.9691344721474	66.0278916467335	1.34645800932355	NaN	4.01020860372584	300	0
36	O1-O2	20451	20507	56	12.0814631174674	5.9487913810488	63.5609173660418	11.7255279161165	66.0278916467335	3.33859125252595	119	4.08917154694177	118	0
36	O1-O2	20649	20705	56	12.4585303917968	5.94840661263501	65.2014701899092	12.4402970295485	66.0278916467335	1.90625432615533	NaN	4.67055057362915	300	0
36	O1-O2	20880	20929	49	12.9644781288719	5.9443732350248	63.1814269407436	13.5473285556052	66.0278916467335	1.71743129650744	NaN	5.11064966262483	300	0
36	O1-O2	21106	21152	46	13.4811299623467	5.91955206599233	65.8455440434298	23.4805546487262	66.0278916467335	2.39529297958779	NaN	5.20865525179748	300	0
36	O1-O2	21565	21613	48	12.9454320630564	5.89769677399077	63.5801822034375	22.4815106233634	66.0278916467335	2.14960843424619	NaN	5.19927908371082	300	0
36	O1-O2	21794	21844	50	12.2867850487126	5.86817498129217	60.3192888757715	12.8727276499361	65.8455440434298	1.74444920273759	NaN	4.50441204000099	300	0
36	O1-O2	22012	22059	47	12.6844917395316	5.88643859440611	61.5803876986403	13.5581959863189	65.8929685687129	2.26750784388448	NaN	5.25858854811533	300	0
36	O1-O2	22231	22289	58	11.9079731212851	5.85019792445868	63.2583802324049	8.72411142700534	65.581342288701	1.77963581651836	NaN	4.62321362737642	300	0
36	O1-O2	22460	22521	61	11.2619469792161	5.86974557055154	60.6865513175312	10.6964917292821	65.581342288701	1.64106664772836	NaN	4.38559784406367	300	0
36	O1-O2	22911	22957	46	13.544148640168	5.45645191561487	65.581342288701	11.9195177185368	65.581342288701	2.04590116965972	NaN	5.25435395459034	300	0
36	O1-O2	23429	23476	47	13.0321837296004	5.49901610931239	63.1426235693864	8.54980798002873	65.581342288701	2.12899892177854	NaN	5.34578887382983	300	0
36	O1-O2	24361	24430	69	10.5692636038999	5.14365748800117	60.7171473726247	10.207163861719	65.3921806142364	2.86090573150019	116	3.44368789096812	115	0
36	O1-O2	24725	24772	47	12.5026283205054	5.15370035992641	60.094395672964	14.2323964472663	65.3921806142364	1.99411463653787	NaN	4.95702965633292	300	0
36	O1-O2	25000	25056	56	12.6478974554582	5.15874952558988	65.330442868911	21.3890981793092	65.3921806142364	1.99719849529831	NaN	4.86150465637577	300	0
36	O1-O2	25285	25340	55	12.3488913944393	5.54541880850082	64.1807497902634	21.4880373397665	65.3921806142364	3.10024081783322	133	4.56124007290941	132	0
36	O1-O2	25568	25616	48	12.9563774251009	5.53814621510605	62.412140126118	23.2515363733788	66.4947223467418	1.80738461598741	NaN	5.22862033285489	300	0
36	O1-O2	25805	25860	55	12.1493402802969	5.56862425911201	62.597033940841	20.0738005565215	66.4947223467418	1.88170703297905	NaN	4.6530004691347	300	0
36	O1-O2	26278	26325	47	13.4668137152464	6.22117609927525	65.297705008871	14.3335444738817	66.4947223467418	2.40590495459296	NaN	5.44666173337537	300	0
36	O1-O2	26460	26524	64	10.490428814047	6.25236426430585	58.5138280561529	6.57406480107914	66.3214454363408	3.02293633683124	114	3.72425725900955	113	0
36	O1-O2	26682	26729	47	12.8663988624907	6.17643475860071	63.0699816952064	8.03384259955205	66.3214454363408	1.99915645710675	NaN	5.12066967504894	300	0
36	O1-O2	27056	27124	68	11.2282366158592	6.37981669567944	63.9481435487376	4.56146615694711	66.3214454363408	1.39464709233939	NaN	4.05628296643262	300	0
36	O1-O2	27234	27289	55	12.1888740254223	6.38564750546237	64.1433906131312	5.36123951047157	66.3214454363408	1.88125223905763	NaN	4.42933738329315	300	0
36	O1-O2	28399	28453	54	12.60674253743	6.39454030449645	63.1902435293809	6.71775433302594	65.3463767172156	1.8630173316723	NaN	5.07703779111409	300	0
36	O1-O2	28599	28646	47	13.1701366854419	6.45324366689023	63.1330376741951	8.61666845120033	65.8760313396956	2.23514453509188	NaN	5.23764470672542	300	0
36	O1-O2	28784	28830	46	13.0937522232125	6.51486363746929	62.6250815963243	10.5018157794747	65.8760313396956	2.18059539731146	NaN	5.32424768504675	300	0
36	O1-O2	28978	29034	56	12.7578039718329	6.43998234048371	65.3463767172156	13.875930318195	65.8760313396956	1.65785037776964	NaN	4.92951166228759	300	0
36	O1-O2	29182	29227	45	12.449267101697	6.55949612446373	60.2460960068761	20.182925542411	65.8760313396956	2.07376851776379	NaN	4.50240091059401	300	0
36	O1-O2	29368	29435	67	10.8238532563832	6.62074528519026	61.5433302343161	37.2984633210482	65.8760313396956	1.44998633913369	NaN	4.08782563975459	300	0
36	O1-O2	29557	29627	70	11.1211141257672	6.54648857362585	63.7652477393782	15.4372418396056	67.0406490927883	1.33347876381364	NaN	3.98995466122379	300	0
36	O1-O2	29759	29808	49	13.0101963508742	6.52379392988843	62.9087689372245	13.374585562585	67.0406490927883	2.00346817988598	NaN	5.23934802660793	300	0
36	O1-O2	29959	30006	47	12.1629450247653	6.53742227293695	58.4485912069147	11.6827856452835	67.0406490927883	2.01079676303998	NaN	5.34925483658751	300	0
36	O1-O2	30152	30206	54	11.9190553133297	6.46942023256766	61.1219577085976	11.280908607381	66.2206803507049	1.83051639890876	NaN	4.54732650702251	300	0
36	O1-O2	30344	30401	57	12.7146439394218	6.41440654545589	65.6628173639955	12.9163326555473	66.2206803507049	2.90883763468195	135	4.66451181486001	134	0
36	O1-O2	30930	30987	57	11.1458328802825	6.10523820645259	59.4930499649921	7.81046743187554	66.0877732836002	3.57928680996948	114	4.17464643354074	113	0
36	O1-O2	31117	31175	58	11.8356431765469	6.07294945073712	61.8919507567871	8.78030856194022	66.0877732836002	1.7081072212219	NaN	4.46023330859505	300	0
36	O1-O2	31328	31385	57	11.3762278649085	6.09361945816427	58.944653472529	8.13864389785752	66.0877732836002	1.6945046353003	NaN	4.40784857448326	300	0
36	O1-O2	31575	31631	56	11.8492870401558	5.69769357482917	60.9877104304081	12.3598454494804	63.0275364981742	1.62223705434993	NaN	4.60424688272362	300	0
36	O1-O2	32038	32093	55	11.4990690883432	5.80219074785256	59.51900547773	11.1004115725966	64.9818280198027	2.96537786369952	136	4.44195544223616	135	0
36	O1-O2	32324	32375	51	12.0997525622692	5.81339901134845	59.4537791935897	11.9224706324607	65.2904546998907	2.0282898088032	NaN	4.91318659428125	300	0
36	O1-O2	32546	32604	58	11.7159733195309	5.83516872179448	61.6817812728873	8.20037270992662	65.2904546998907	2.00825072805801	NaN	4.75031475650803	300	0
36	O1-O2	33037	33086	49	12.6581475794573	5.80709785505315	62.0925180687769	12.5659818780022	65.2904546998907	3.09240128445047	135	4.08121013503342	134	0
36	O1-O2	33281	33338	57	11.8599542371315	5.94566044835587	62.4706301504098	10.9877838728866	66.409975071025	3.32416695286599	122	4.04208510395223	121	0
36	O1-O2	33787	33854	67	10.9616350638506	6.03700548285498	62.2393155302599	9.196034378774	66.9569061856018	2.64315920682563	137	3.71602040144103	136	0
36	O1-O2	34059	34107	48	13.5220096628104	5.98517829399287	66.409975071025	22.1340715709835	66.9569061856018	2.22293342197827	NaN	5.5959689615023	300	0
36	O1-O2	34301	34357	56	12.3149783477572	6.29033161977916	63.3050532817829	12.2303187251057	66.9569061856018	1.80241850739066	NaN	4.79027020388094	300	0
36	O1-O2	34500	34559	59	12.3833081505509	6.23986778613095	66.5921357432138	12.3648166245441	66.9569061856018	2.07564076219231	NaN	4.56385293611214	300	0
36	O1-O2	34741	34809	68	10.9450481957333	6.28132724300592	62.267269465313	15.9478054019045	66.9569061856018	2.84940760740754	129	3.16273911561341	128	0
36	O1-O2	34935	34982	47	13.1128219085485	6.28767641217205	62.971902721509	22.1740025597305	66.9569061856018	1.98392024415373	NaN	5.4362014607149	300	0
36	O1-O2	35302	35359	57	12.0578416449094	6.64446219611627	63.4228770080542	18.1168629553319	68.5432573591101	1.77445732184533	NaN	4.72839371301322	300	0
36	O1-O2	35496	35562	66	10.564034119278	6.65755831605687	60.0702092337836	13.9023578634458	68.5432573591101	2.45120835162122	148	3.64180633785378	147	0
36	O1-O2	35707	35763	56	12.0187042633639	6.59589489225213	61.7659263235461	18.1403199635239	67.826345686549	2.56099628456795	149	4.84212861998026	148	0
36	O1-O2	35886	35951	65	11.0730201777139	6.62033604894196	61.1754829117849	15.1460558869691	67.826345686549	3.12155295622589	113	3.5545904261542	112	0
36	O1-O2	36078	36149	71	11.8958143084278	6.48511437250461	67.6060064645095	11.6005285489292	67.826345686549	1.48283569518338	NaN	4.34636369879783	300	0
36	O1-O2	36296	36341	45	13.3860766384363	6.55519301809272	62.9551433744358	14.5339803893408	67.826345686549	2.39709083664415	NaN	5.11876337026142	300	0
36	O1-O2	36473	36519	46	12.9481521234299	6.5610754572956	62.1082420949086	13.5694258259947	67.826345686549	2.79706503334741	155	5.03442350348256	154	0
36	O1-O2	36655	36703	48	13.1008523956115	6.58687899684563	65.104088306283	9.96134271928381	67.826345686549	2.03975207545945	NaN	4.90273164422696	300	0
36	O1-O2	36850	36907	57	12.0437367144341	6.59894213494881	63.0666417067516	8.5226117439738	67.826345686549	1.74710376372371	NaN	4.59835558698642	300	0
36	O1-O2	37404	37450	46	13.0754765381498	6.66700477710488	62.1510678294778	10.1536924105141	68.8507503716866	2.25623160378817	NaN	5.06279452181091	300	0
36	O1-O2	37801	37855	54	12.5809021020074	6.67959405966875	64.4267052640439	6.15135874599275	68.8507503716866	1.83976382447574	NaN	4.83579589917822	300	0
36	O1-O2	37983	38029	46	13.2642904952574	6.63296889192192	64.7563200145699	6.11729335226304	68.8507503716866	2.69104386152895	158	4.45734192211784	157	0
36	O1-O2	38185	38231	46	14.6368926809056	6.63459229301009	68.8507503716866	8.37086368169965	68.8507503716866	2.20306774897486	NaN	5.56223674710712	300	0
36	O1-O2	38373	38425	52	13.3668429254558	6.74039115370915	67.0205797706712	8.01791285452982	68.8507503716866	1.83183422933244	NaN	5.0256492632411	300	0
36	O1-O2	39174	39232	58	12.3697825550287	6.42122715299589	66.4701796137244	7.15269241261157	68.8507503716866	3.4781057065876	117	4.07270861243476	116	0
36	O1-O2	39355	39413	58	12.478899305223	6.32189931430874	66.3116149094552	7.25436049565073	67.4690955146835	1.87780421190069	NaN	4.7603295297242	300	0
36	O1-O2	39584	39648	64	11.3343549971443	6.28392759297681	63.1800434235946	6.02432925704399	67.4690955146835	1.59075466733284	NaN	4.20431612850909	300	0
36	O1-O2	40026	40083	57	12.2020955256166	5.9625816945145	63.3978246880558	8.76275158626629	67.0527883758377	1.892145833697	NaN	4.97052201910767	300	0
36	O1-O2	40253	40307	54	11.8646653277393	5.973995706017	61.2651378799521	8.25559571017769	66.3116149094552	1.74458996949969	NaN	4.58969130858177	300	0
36	O1-O2	40493	40538	45	12.887035552378	5.92212596585752	60.9248288799008	7.91393441343805	64.1714050614766	2.27850892807529	NaN	5.37308468400365	300	0
36	O1-O2	41198	41240	42	13.7096070701317	5.99892324228833	63.312239584023	8.85783834435512	68.6803942153267	2.40028016564506	NaN	5.64060327712074	300	0
36	O1-O2	41710	41768	58	12.148188746224	6.06386442837195	64.3405196771827	5.81645684288494	68.6803942153267	2.61245108616648	148	4.4303438504546	147	0
36	O1-O2	42107	42163	56	13.2796743295819	6.01377980031097	68.6803942153267	6.99111454186795	68.6803942153267	1.92950891637769	NaN	5.17388484458503	300	0
36	O1-O2	42313	42383	70	11.2591336423599	6.35500986270453	64.5315860024062	5.04060859262786	68.6803942153267	2.33828109175263	147	3.86169181661137	146	0
36	O1-O2	43136	43182	46	13.30198006472	6.65715324601044	62.9595010031849	7.95920880491421	68.6803942153267	1.98619759314083	NaN	4.62011414689235	300	0
36	O1-O2	43325	43374	49	13.2325495842381	6.40617422299646	65.4239395484946	7.60921810544513	65.840981645907	2.32674642192359	NaN	5.07988517579249	300	0
36	O1-O2	43553	43621	68	11.3465979027247	6.5704935692795	64.3876192590761	4.3727296869199	65.840981645907	1.36513994936518	NaN	4.27603503565965	300	0
36	O1-O2	43724	43798	74	10.3744133961116	6.62749812875094	60.915022659874	4.24449543370332	65.840981645907	2.4395380371827	117	3.62255530586736	116	0
36	O1-O2	43957	44002	45	13.7779702729812	6.569448006686	65.840981645907	8.81728515959891	65.9267607007609	2.07557906737472	NaN	5.37797624723078	300	0
36	O1-O2	44751	44805	54	12.86914353139	6.19516612954174	65.8914549514849	6.79149858453666	65.9267607007609	1.93523207490362	NaN	5.12508570913877	300	0
36	O1-O2	44967	45013	46	12.6219622532444	6.26612733467268	60.7300230138966	5.65707266139237	65.9267607007609	2.2051971278542	NaN	4.93926218797127	300	0
36	O1-O2	45167	45234	67	11.5360787248477	6.17290871253362	65.3193236896959	4.8691113585739	66.284384828449	1.5194384996888	NaN	4.30837972333926	300	0
36	O1-O2	46028	46073	45	13.9834650773944	6.02254047196982	66.0854416661223	9.5183715303969	66.0854416661223	2.02314423585577	NaN	5.47012340419192	300	0
36	O1-O2	46257	46303	46	12.8525966824638	6.15923230650251	60.814214808905	6.73953041025313	66.0854416661223	2.26411192561199	NaN	5.07894707236251	300	0
36	O1-O2	46454	46499	45	13.2440248601039	6.1040161221745	61.9900369399779	8.49188783522963	66.0854416661223	2.28368450315575	NaN	5.29037602288479	300	0
36	O1-O2	46864	46910	46	12.2434822685154	5.90174087333202	60.0392174036359	12.436784345379	66.5315754295943	2.20918847515322	NaN	5.2119699619499	300	0
36	O1-O2	47037	47095	58	11.3463399031038	6.19976262924751	60.7294416509264	10.5286849869724	66.5315754295943	1.77304601060253	NaN	4.41117671500974	300	0
36	O1-O2	47471	47519	48	12.5013074731781	6.09922313041774	59.9189589210344	9.68195015554342	65.9588362939489	1.90590046457136	NaN	5.06063225304996	300	0
36	O1-O2	47682	47730	48	13.5840415744798	5.96045913695722	65.851479123343	12.7164477621102	65.9588362939489	2.21249779706004	NaN	5.25901584027583	300	0
36	O1-O2	47920	47965	45	13.1894591062855	5.87696041910716	63.1500234841531	10.5523816737	65.9588362939489	2.23595737223255	NaN	4.61295764019287	300	0
36	O1-O2	48183	48241	58	11.5839864907138	5.94416514412889	60.8889975354415	8.13690958267777	65.9588362939489	1.64987642765158	NaN	4.57650883816334	300	0
36	O1-O2	48620	48686	66	11.3026470441725	5.96211296404199	63.6614678314969	10.2160634060541	66.2585777151319	1.46638436803129	NaN	4.25804341029925	300	0
36	O1-O2	49076	49133	57	12.3585295258366	5.92428855362898	64.4399750877818	9.12922611288392	66.1989682026836	1.89040253714736	NaN	4.81980244077335	300	0
36	O1-O2	49334	49392	58	11.3474168332833	5.9873903388702	59.8192948642652	7.61576186074248	66.1989682026836	1.62731317071376	NaN	4.41219436208875	300	0
36	O1-O2	49564	49623	59	12.1149430127979	5.94398245739506	65.3687223842471	11.2651929186991	66.1989682026836	1.83602760257395	NaN	4.65027010190063	300	0
36	O1-O2	49826	49873	47	13.5063900302301	5.8982402081222	64.6905130121516	14.0696490583375	66.1989682026836	2.14061316551286	NaN	5.26507257070275	300	0
36	O1-O2	50259	50331	72	10.5180447461433	5.89970597544167	61.4364917690364	8.73142145063762	66.1989682026836	2.7327080852536	118	3.53269362177638	117	0
36	O1-O2	50503	50570	67	10.583669879586	5.93098838371747	59.4175704423201	6.65137910524925	66.1989682026836	1.37450846993229	NaN	4.12543785476795	300	0
36	O1-O2	50743	50788	45	12.6935635905643	5.90685409215359	60.0798146822718	9.49824352973602	65.0643153030692	2.11853530474146	NaN	5.11416890255567	300	0
36	O1-O2	50954	51001	47	13.1122065356491	5.80665054722064	63.3893463617311	10.1907654608378	64.0806114408799	1.93128979204872	NaN	4.85341369062461	300	0
36	O1-O2	51614	51658	44	13.2800450430259	5.93251289430003	62.3553274693473	10.5093931825216	65.0833513313106	2.37966457784579	NaN	5.29199350919432	300	0
36	O1-O2	51926	51973	47	12.3954814268895	6.04074977166602	58.9650876505834	7.10184099845398	67.1131287125017	2.19852049644991	NaN	5.05808465054559	300	0
36	O1-O2	52370	52440	70	11.2515722437807	5.96833001594649	65.0833513313106	7.41502980707873	67.1131287125017	1.63789860121003	NaN	4.30552210762797	300	0
36	O1-O2	52582	52641	59	12.5035854348039	5.95575672904722	66.1139207608761	12.2061846635643	67.1131287125017	1.87180689040339	NaN	4.66959234900712	300	0
36	O1-O2	52998	53044	46	13.3510173038708	5.69392671187283	64.5699054845066	14.1961656104444	67.1131287125017	2.29447504665054	NaN	5.00649544849211	300	0
36	O1-O2	53207	53254	47	13.1183551352882	5.7033363235429	62.8173484616844	21.1590490582676	67.1131287125017	2.10470628127186	NaN	5.23869206145536	300	0
36	O1-O2	53448	53496	48	13.0405180012936	5.63577962663311	63.7234180703965	21.0997980505179	67.1131287125017	2.08241028027369	NaN	5.19863864380024	300	0
36	O1-O2	53728	53784	56	12.1003403985494	5.55648489765161	62.6073993940419	12.1031462571267	67.1131287125017	1.90796088424218	NaN	4.69509087653933	300	0
36	O1-O2	54198	54254	56	11.9487009747003	5.48036156013244	61.9975740347239	20.7940389055764	64.7684490183593	1.88537601368502	NaN	4.71436436902314	300	0
36	O1-O2	54417	54464	47	12.4645143412759	5.51173330690002	59.8877670659905	13.5233029874074	64.7684490183593	2.1672959838177	NaN	4.85290140444692	300	0
36	O1-O2	54835	54891	56	11.4617818306483	5.61520972342051	60.9959073780928	11.3639506402333	67.398284520223	1.68952156895322	NaN	4.44610548247673	300	0
36	O1-O2	55051	55099	48	13.2224770849371	6.05003809775501	63.6690440442496	14.6131042465643	67.398284520223	2.09112878828252	NaN	5.16900853091801	300	0
36	O1-O2	55489	55536	47	13.6325928260698	5.89924613804571	66.2083040570588	11.6116953962584	67.398284520223	2.22597677410471	NaN	5.22694728712566	300	0
36	O1-O2	55682	55729	47	13.5362838355827	5.93754784194378	65.9194115242935	15.1345684166218	67.398284520223	2.52098302239332	NaN	5.07701140860442	300	0
36	O1-O2	55874	55919	45	13.5435066807654	6.00846737244909	64.2907801770425	14.9183489830512	67.398284520223	2.16564562271406	NaN	5.31626225346938	300	0
36	O1-O2	56079	56133	54	12.3474872020453	6.05627549171814	64.7989935239903	9.55141163912002	67.398284520223	1.82665493291077	NaN	4.82740956224299	300	0
36	O1-O2	56562	56628	66	11.1937088115235	5.86402714273817	63.3044594005982	11.1261338410795	66.2401175614495	1.54189491702458	NaN	4.38414402918449	300	0
36	O1-O2	56816	56862	46	13.1088668878329	5.73268641234751	61.6727450059717	14.940416584793	65.8877927578594	1.95942604106381	NaN	5.25410963827906	300	0
36	O1-O2	57321	57369	48	12.6033590490623	5.52442512603736	61.3505829574236	14.11786272208	64.784054708264	1.77103340861066	NaN	4.93297782754831	300	0
36	O1-O2	57591	57648	57	11.8595967684292	5.44141552819466	62.7974380496234	11.9297271769307	65.6811601866775	1.6515244296548	NaN	4.40682784461109	300	0
36	O1-O2	57828	57884	56	12.4954535896068	5.83318483325491	64.3009563118488	9.75248765406894	65.6811601866775	1.53936898978383	NaN	5.01751278732139	300	0
36	O1-O2	58119	58166	47	13.0091357747687	5.57631204059087	62.44121479594	10.3993327310566	65.6811601866775	2.10395468364786	NaN	4.8010122405193	300	0
36	O1-O2	58825	58873	48	12.9899527456131	5.89980990272201	63.4038457339899	6.82378867018309	65.6811601866775	2.10676220475223	NaN	5.24891300814805	300	0
36	O1-O2	59437	59504	67	10.3263471290081	6.25713690014492	57.902260186087	4.24032708495891	64.4148600149374	1.47328121880249	NaN	4.14242940149633	300	0
36	O1-O2	59847	59919	72	10.9372851148657	6.40081225810496	63.054778993664	4.72122333883754	64.4148600149374	1.22846159968469	NaN	3.98804682491466	300	0
36	O1-O2	60048	60120	72	10.8345189462716	6.54428348696513	61.1827155857346	4.55560545657348	65.2573597339892	2.71368147876561	119	3.63336465513444	118	0
36	O1-O2	60272	60319	47	13.3459055688393	6.23945874656516	63.6761387972283	8.27359015484105	67.217207813242	2.28676853778644	NaN	5.40761877688317	300	0
36	O1-O2	60845	60892	47	12.8636817615557	6.56720201825664	62.1862378659379	7.89483837921183	67.217207813242	1.95305892152402	NaN	5.01066866904941	300	0
36	O1-O2	61025	61071	46	13.8089794286463	6.52945971523047	67.217207813242	9.26094503096472	67.217207813242	2.47010071184779	NaN	5.1194912228985	300	0
36	O1-O2	61589	61634	45	13.4101578318525	6.16531227971801	64.1281869583759	11.830279773344	67.217207813242	2.48362130756211	NaN	5.42296888018382	300	0
36	O1-O2	61808	61872	64	11.5216602437696	6.37384153364773	64.6411618190522	11.8757554036281	67.217207813242	3.45293217906195	123	3.71680530950974	122	0
36	O1-O2	62025	62073	48	13.4615820409775	6.18834071489679	64.7593249518812	15.3167840231102	67.217207813242	2.17237151622548	NaN	5.26329222547828	300	0
36	O1-O2	62235	62281	46	13.0653977549455	5.98462695203212	61.6951264719769	12.7672419713234	64.9810434480433	2.0693673209154	NaN	5.04273691455822	300	0
36	O1-O2	62442	62488	46	12.8738927766782	6.06228045915223	61.4728208845912	14.7664767235045	64.9810434480433	2.20587586446761	NaN	5.20419247520607	300	0
36	O1-O2	62645	62691	46	12.9211126405549	5.87034602875202	61.5667227857161	14.7565029571146	64.8607274640524	2.27870986047367	NaN	5.42894538515227	300	0
36	O1-O2	62847	62894	47	12.5094970770981	5.85437890480863	60.1424058032372	13.9236018223831	64.7593249518812	2.06605110250458	NaN	5.00689200484766	300	0
36	O1-O2	63451	63512	61	11.5583840465675	6.11067948536065	62.8916851692472	11.51641928167	63.8481487024864	1.58659193488094	NaN	4.38728374322369	300	0
36	O1-O2	63663	63724	61	11.7177979370414	6.08393977083314	62.7502046724176	11.8085914747565	63.8481487024864	1.56998801648502	NaN	4.44121653893645	300	0
36	O1-O2	63903	63957	54	11.9883996672698	5.83018600033431	61.950151506539	9.28172312353655	63.8481487024864	1.78136597318585	NaN	4.58700705089846	300	0
36	O1-O2	64138	64186	48	12.8934306875685	5.8607572818323	62.7157254479454	14.5588685850492	63.8481487024864	2.12551304185573	NaN	5.05758350774129	300	0
36	O1-O2	64364	64411	47	12.8610567013575	5.57550144712437	62.4914206789901	22.5547740620242	64.9611015893804	1.93667768274473	NaN	4.46196804032679	300	0
36	O1-O2	64612	64657	45	13.405390562464	5.56295409493382	63.4924592166193	24.4081979863112	65.0288190591319	2.13895246550598	NaN	5.24657063005414	300	0
36	O1-O2	65118	65177	59	12.0800691291146	5.51996822597774	64.2390936909133	12.3914118819113	65.0288190591319	1.78535650143687	NaN	4.57913982257613	300	0
36	O1-O2	65398	65445	47	13.1339160908445	5.31446605713601	64.4953763350123	14.657932889968	64.9646079314865	2.05610178276864	NaN	4.72952111873813	300	0
36	O1-O2	65930	65979	49	12.3235068771754	5.18432661721733	61.0372755182536	19.9443119391358	64.8084714922144	3.2661057004206	125	3.96885435119364	124	0
36	O1-O2	66219	66264	45	12.5761553847057	5.14613875040305	59.3756647184413	13.5635068348931	64.8084714922144	2.1201472316223	NaN	4.90410553564293	300	0
36	O1-O2	66463	66522	59	11.4755059163179	5.49696471703701	61.518446066529	8.30230592514719	63.9034587862258	2.79147164218468	122	3.60229081330902	121	0
36	O1-O2	66728	66784	56	12.1225574158699	5.51781194394929	63.5069591034278	12.7431817055254	63.8809835757913	1.70049919621698	NaN	4.52038003077885	300	0
36	O1-O2	67465	67527	62	11.8613421940191	5.97388045416585	63.652210989978	8.63831294884341	67.4672212951952	1.71483435251823	NaN	4.71145504033202	300	0
36	O1-O2	67713	67761	48	13.7656897150666	6.3572292783664	66.7412070431862	8.74129134406494	67.8532421373608	2.00070807955702	NaN	5.48740186376165	300	0
36	O1-O2	68128	68175	47	13.2870087848472	6.5034307423038	65.0738723370424	9.74394729307343	67.8532421373608	2.05938365656647	NaN	5.03743215953775	300	0
36	O1-O2	68322	68380	58	12.4911330701031	6.47512599094894	66.2602832438503	8.66590263211472	67.8532421373608	2.03596300026526	NaN	4.70905617474455	300	0
36	O1-O2	68724	68801	77	10.9977920227667	6.75681375088803	66.256782157763	4.53421165652096	67.8532421373608	2.89742569783948	107	3.72015177762519	106	0
36	O1-O2	68939	68995	56	12.7600734975723	6.70130154741429	66.0596058712353	6.15428488349484	67.8428092500481	1.99003599388361	NaN	4.72540978958133	300	0
36	O1-O2	69142	69187	45	13.710201583256	6.70564708741734	64.9336034527	8.12037480578476	67.8428092500481	2.33590768748767	NaN	5.44162840681201	300	0
36	O1-O2	69893	69941	48	13.2090371209462	6.30353722718927	63.6391602064645	9.95336168564795	66.9986229157701	2.10011158996326	NaN	5.29731806503179	300	0
36	O1-O2	70078	70125	47	11.7760131294585	6.35033258947317	56.3607159951626	7.87101582375284	65.7825779095699	1.93871450793821	NaN	4.83425105243753	300	0
36	O1-O2	70269	70345	76	10.5748481104508	6.25304176320785	63.3271371641713	5.19058188792103	65.0123057774867	2.77889625522167	112	3.34015486648648	111	0
36	O1-O2	70539	70585	46	13.2178244824786	5.98393044235167	63.1144706048589	9.79595832344301	65.0123057774867	2.17128332176832	NaN	5.20845033174892	300	0
36	O1-O2	70766	70823	57	12.3466271738684	5.93728561733463	64.8142383677529	8.74044620972569	64.8142383677529	1.77969102861919	NaN	4.85766532555975	300	0
36	O1-O2	71013	71071	58	11.9864496555286	5.93897617152612	62.7494307596127	8.24484855272698	64.8142383677529	2.79800147472139	134	4.2654347013776	133	0
36	O1-O2	71983	72038	55	12.2143722088116	5.96347233454016	63.2892444334043	6.89274151953354	64.8279804126985	1.85975946333969	NaN	4.67135379952691	300	0
36	O1-O2	72227	72295	68	11.2862142545241	5.92057802509728	63.9010064229872	5.97871744508757	64.8279804126985	1.4917627274825	NaN	4.3045320137524	300	0
36	O1-O2	72672	72730	58	11.67737751794	5.93208295547383	61.6190118717688	10.5021876040694	64.1888455600834	1.49193176780031	NaN	4.58759778898816	300	0
36	O1-O2	72899	72963	64	11.0800737617278	5.91845075325526	62.0776942894391	9.66466231034878	64.1888455600834	1.67516789602584	NaN	4.09705275462879	300	0
36	O1-O2	73159	73205	46	13.0075213018217	5.87847175816034	61.8182532741386	10.0881250786533	64.1888455600834	1.9741891503376	NaN	5.23124779305694	300	0
36	O1-O2	73378	73441	63	11.3798503499521	5.86045056476106	62.9305946823877	7.74884276483225	64.2938219226845	1.59515329286477	NaN	4.52197778759621	300	0
36	O1-O2	73642	73688	46	12.6873506797951	5.88074804265755	61.7310773516854	9.61883644713141	64.8167812435084	2.42942869625835	NaN	4.91675951477934	300	0
36	O1-O2	74267	74329	62	11.5596147313428	5.10969524423642	64.2938219226845	8.64084017815949	64.8167812435084	2.50682679074858	148	4.07841984894175	147	0
36	O1-O2	74855	74899	44	13.2062020980147	5.22973973470849	61.8882455826608	8.87706901279677	66.317649630119	2.14927973799047	NaN	5.30127171854437	300	0
36	O1-O2	75824	75880	56	12.8052121309903	5.37887177359085	66.317649630119	10.0058568444099	69.2193150868662	1.78164336600246	NaN	4.69511791514676	300	0
36	O1-O2	76454	76521	67	12.1727488770375	6.22792074452937	69.1124516008095	11.4601874978499	70.5570721406398	1.56346242588953	NaN	4.25596820318575	300	0
36	O1-O2	76658	76716	58	13.0082079805372	6.6045900974777	67.9171663882283	12.4662346020225	70.5570721406398	1.90201533696127	NaN	4.94780005668832	300	0
36	O1-O2	76928	76973	45	14.1499860646044	6.64398891792966	66.7599470011315	14.6574629425924	70.5570721406398	2.46883709640577	NaN	5.48569438509989	300	0
36	O1-O2	77107	77165	58	13.2197619546551	6.606987006533	69.9536263689342	12.8273589934481	70.5570721406398	3.10839890544843	136	4.50511626198704	135	0
36	O1-O2	77299	77350	51	12.6822385206182	6.69963446158314	62.1741482381256	18.2570915680398	70.5570721406398	1.83603246491707	NaN	5.11254052313512	300	0
36	O1-O2	77478	77538	60	12.2664080942776	6.96962089245137	66.4003438996762	17.1090279194883	70.5570721406398	3.17804597905109	130	4.01887672175951	129	0
36	O1-O2	77676	77732	56	12.9309940376987	6.84221263932445	67.3144228518618	19.2794139605446	69.9536263689342	1.76541747015297	NaN	4.78598621028647	300	0
36	O1-O2	77885	77941	56	12.6789814497449	6.8480217265894	66.8308790275685	18.1043773400187	69.9536263689342	1.94671106842695	NaN	4.77602799758993	300	0
36	O1-O2	78259	78304	45	13.7433098585641	6.78697118193981	65.6779494986771	21.0688496534667	68.3983958328213	2.46317329066992	NaN	5.21265683178562	300	0
36	O1-O2	78439	78495	56	12.3862923016324	6.82121607616374	64.1697833286852	17.2533933027454	68.3983958328213	1.88459963837524	NaN	4.7956019958335	300	0
36	O1-O2	78639	78685	46	12.2365553424485	6.86367759306242	59.7645718954542	16.9253711016759	68.3983958328213	2.35723394900894	NaN	4.93232252255462	300	0
36	O1-O2	78794	78848	54	12.9538076763654	6.70269727415008	66.5272173221563	19.2217457883801	67.3251490155209	1.82952348667375	NaN	4.87828367319337	300	0
36	O1-O2	78984	79030	46	13.499747431567	6.67848536491319	64.9127675731399	20.7281230179064	67.3251490155209	2.14221501575814	NaN	5.01663079051663	300	0
36	O1-O2	79153	79235	82	10.4184309904631	6.71120383684695	64.0278676040584	11.4964472405206	67.3251490155209	1.34431782056424	NaN	3.8759968972432	300	0
36	O1-O2	79339	79406	67	11.8225041936498	6.68690991498234	64.3148720572377	14.8056331777248	68.6476056824664	2.63782831353662	133	4.71574436534249	132	0
36	O1-O2	79549	79594	45	13.7177184982471	6.69580523541305	64.5154999483309	19.7644551199037	68.6476056824664	2.02425433791715	NaN	5.19014495625265	300	0
36	O1-O2	79757	79800	43	12.9201662168276	6.76571815549596	60.4634046634434	11.7619287001698	68.6476056824664	2.07662357673895	NaN	5.2579826791373	300	0
36	O1-O2	79941	79985	44	13.1000986145277	6.74085433949066	62.6868174179891	12.0010388113985	68.6476056824664	2.17603525831525	NaN	5.12065602462189	300	0
36	O1-O2	80300	80357	57	12.3101502810782	6.66880764816161	64.2049382344529	7.99522004069493	68.6476056824664	1.79296398031725	NaN	4.66118065280027	300	0
36	O1-O2	80481	80541	60	11.6365903488945	6.3255604648875	61.9024564135018	7.44632819588524	68.6476056824664	1.60835588378506	NaN	4.72437782316314	300	0
36	O1-O2	80861	80930	69	11.3201630638894	6.30752994741495	64.6929361009387	5.64671553437566	68.6476056824664	1.40848890023618	NaN	4.14657203399437	300	0
36	O1-O2	81070	81127	57	11.7517109680655	6.03769219451693	61.410644546175	6.18527929163376	68.6476056824664	2.86924420344131	129	4.06352945112689	128	0
36	O1-O2	81563	81629	66	10.8989390411761	5.9183755471406	60.9574892977109	4.77494604995649	65.3617737693052	1.51129733065206	NaN	4.1065658071472	300	0
36	O1-O2	82124	82183	59	11.5447144620668	5.48916506559615	60.9867718167218	4.9171282207544	65.0388674519276	1.89625020772879	NaN	4.55317852230462	300	0
36	O1-O2	83370	83420	50	12.267874736179	6.13204998768278	61.4720041178347	5.44708701958063	66.2590046793733	2.00958091111291	NaN	4.88216094936461	300	0
36	O1-O2	83755	83802	47	13.8101895163624	6.32167590109205	66.2590046793733	6.13998653888482	66.2590046793733	2.03662788161949	NaN	5.31917667099365	300	0
36	O1-O2	83940	83998	58	12.0430394341126	6.35079647842994	63.8634190742709	5.24436601393369	66.2590046793733	3.18038280709426	129	3.65986176066493	128	0
36	O1-O2	84311	84369	58	10.7512231295857	6.55117232261608	58.5345165473014	5.4272056475187	66.2590046793733	3.42630742460302	115	4.02713639020969	114	0
36	O1-O2	84900	84948	48	12.3133249317996	6.20352346561859	59.8932507358428	7.29762458157866	65.3357977119344	1.91596464558426	NaN	5.20792549139733	300	0
36	O1-O2	85141	85189	48	13.2323185510239	6.37583925096872	64.2158202773263	7.30425041243316	66.148408909432	2.0961468534538	NaN	5.16978294893773	300	0
36	O1-O2	85299	85382	83	10.4311241565668	6.41032133491589	64.6296825650562	4.47403711597191	66.7597494658819	1.34486030693734	NaN	3.63753206608298	300	0
36	O1-O2	85528	85573	45	13.5846603766684	6.40720342162652	63.6850654178146	6.70971887084259	66.7597494658819	2.19007081473235	NaN	5.10292761916724	300	0
36	O1-O2	86112	86177	65	11.5266442009707	6.60001864270929	64.6015695660523	4.56654562835679	66.7597494658819	2.55988764752049	129	3.74776493051475	128	0
36	O1-O2	87098	87152	54	13.1634964686058	6.45186983905903	67.2060161366254	5.35880141232195	67.2060161366254	2.04053381170995	NaN	4.88353428617905	300	0
36	O1-O2	87288	87344	56	12.0804553664123	6.50445714510872	62.9430888130226	4.53169009845289	67.2060161366254	1.98977121610882	NaN	4.5859897483435	300	0
36	O1-O2	87475	87541	66	10.6779207654558	6.64099713028026	60.7145479727657	3.84629898815007	67.2060161366254	3.07871258737685	128	3.39579681377679	127	0
36	O1-O2	88228	88284	56	12.4276336279576	6.31942251989812	65.0260831221618	8.97967780804378	66.7167274108423	1.92509162064435	NaN	4.52278906819364	300	0
36	O1-O2	88398	88460	62	12.0473566621029	6.29203150103231	65.4153901171456	6.83416998474155	66.7167274108423	1.53524056810643	NaN	4.27077455052797	300	0
36	O1-O2	88601	88664	63	11.5261367713398	6.35405787803216	63.4037848456184	6.28386527453915	66.7167274108423	1.47138224535569	NaN	4.11229579619153	300	0
36	O1-O2	88807	88865	58	12.2943662664031	6.33830582888542	65.3926111939107	9.04832952256332	66.7167274108423	2.04020877712238	170	4.57285582999187	169	0
36	O1-O2	89047	89094	47	13.7740463775312	6.3547881585271	66.405196478611	14.9288123317062	66.7167274108423	2.09957648962628	NaN	5.46318773846998	300	0
36	O1-O2	89559	89618	59	11.9446166462776	5.96988520232332	64.1608685592203	18.9898622966867	66.7167274108423	2.9495812177377	139	4.07518618793904	138	0
36	O1-O2	89816	89864	48	13.1846564126823	5.95072430016927	63.5415780442925	23.0888426434208	66.7167274108423	2.09719117279144	NaN	5.53533958411806	300	0
36	O1-O2	90054	90098	44	13.2715530705331	5.97134454490246	62.7055743547729	22.8306480417745	66.405196478611	2.38134753164481	NaN	5.2677693925393	300	0
36	O1-O2	90291	90345	54	11.6750754938297	6.02010375981547	59.3024250298055	17.460689463454	67.0902124173947	2.06759608107631	NaN	4.52618482991599	300	0
36	O1-O2	90484	90541	57	12.1942805994371	6.17770018432514	63.9856346475145	51.9806505936189	67.0902124173947	2.12126877561963	NaN	4.64385744761565	300	0
36	O1-O2	90738	90798	60	11.4949000645148	6.34380753335485	61.026689218939	15.7013064539084	67.0902124173947	2.72780915804245	132	4.65296124642506	131	0
36	O1-O2	90929	90986	57	12.1333707608199	6.26931222920987	63.3654375280706	11.6832590867863	67.0902124173947	3.27764295279922	120	4.36124607097246	119	0
36	O1-O2	91133	91182	49	13.8520470414379	6.2223046181918	67.0902124173947	15.0733180197207	67.0902124173947	1.84809560457175	NaN	5.40168221639679	300	0
36	O1-O2	91337	91391	54	12.0268463711053	6.34208866613288	60.4972231923344	11.2620951849088	67.0902124173947	1.75286654390838	NaN	4.71502919452147	300	0
36	O1-O2	91495	91562	67	11.3041664998215	6.75186253112699	63.5889394890187	7.31934079434784	67.0902124173947	2.58808625796801	125	3.92697170614941	124	0
36	O1-O2	92017	92069	52	12.1339306267839	6.58261956663985	62.5802299524556	6.80892781508427	67.0902124173947	2.04723818375833	NaN	4.55326364727289	300	0
36	O1-O2	92196	92246	50	12.9290671165063	6.57000982689408	64.8845658384298	7.73105531478656	67.8674458806236	2.32088351410283	NaN	5.25364039075758	300	0
36	O1-O2	92525	92585	60	11.2843165333636	6.89767459379746	60.8122307271579	5.90301241791984	67.8674458806236	1.71870135932258	NaN	4.56226841177067	300	0
36	O1-O2	92698	92743	45	13.2642258204511	6.83374841754518	63.0252059262616	6.94006366027374	67.8674458806236	2.35062790982706	NaN	5.30298618992557	300	0
36	O1-O2	93051	93108	57	13.311526522181	6.57222226942119	67.8674458806236	8.34946106564935	67.8674458806236	1.82019067799085	NaN	5.07294998901295	300	0
36	O1-O2	93230	93285	55	12.7998634776775	6.59721692489199	64.6334790427023	7.66017651889998	67.9965296226701	1.80113337853948	NaN	4.93025215735834	300	0
36	O1-O2	93419	93465	46	12.5595581153768	6.69158384995508	58.8535621113772	8.9904262902587	67.9965296226701	2.32297832292308	NaN	5.26609600107391	300	0
36	O1-O2	93962	94017	55	12.3109145427798	6.67441156714503	64.7252144766523	8.93841879264316	68.6436904898865	3.53374467269736	133	4.35631851461744	132	0
36	O1-O2	94168	94237	69	11.5381143104107	6.55992439886745	66.3189317292485	8.01239722478526	68.1383763365863	1.51756243919746	NaN	4.01768641555381	300	0
36	O1-O2	94360	94414	54	12.3564438071268	6.5670958661096	63.191296256248	9.12084926812354	66.9660925964648	1.86073118836289	NaN	4.74676672934952	300	0
36	O1-O2	94558	94624	66	11.5618644685372	6.55328488424646	64.8304279344585	6.46272123818172	66.9660925964648	1.59073847077168	NaN	4.37805072600181	300	0
36	O1-O2	94757	94803	46	13.3903783440625	6.63007010122794	63.242569014994	10.4475915455448	66.9660925964648	2.21627237646434	NaN	5.40324929453574	300	0
36	O1-O2	95145	95188	43	13.6169234978187	6.57673980847152	63.4484696721533	11.315722162189	66.9660925964648	2.13680727347902	NaN	5.34881173988726	300	0
36	O1-O2	95321	95369	48	13.0718052783269	6.50129459290517	64.582709484185	10.6528982551826	66.7734195627769	1.91495714789327	NaN	5.209259513245	300	0
36	O1-O2	95683	95727	44	13.7636941434222	6.48590388414241	63.7846898792741	9.42871920479014	67.2707872985778	2.33746639826838	NaN	5.28156035616407	300	0
36	O1-O2	95881	95936	55	12.0352865066313	6.4954514766153	62.9728591501168	5.99920499586351	67.8302347391462	1.95981143816059	NaN	4.91230618323942	300	0
36	O1-O2	96283	96327	44	13.026704643431	6.61254846245958	60.2383439424299	6.61622156153151	67.8302347391462	1.98546875717206	NaN	5.29415230105301	300	0
36	O1-O2	96642	96707	65	11.9420220489424	6.51011980312555	66.9747471489053	6.58207668676937	67.8302347391462	3.18561919676629	121	3.72768272550762	120	0
36	O1-O2	97018	97076	58	12.2036709735676	6.46461306471145	64.0342019727347	5.1643941471347	67.8302347391462	1.77619301588065	NaN	4.78146364304429	300	0
36	O1-O2	97409	97455	46	12.5775834922524	6.23273070964901	60.7825047085198	6.26889962797934	67.8302347391462	1.97312981080297	NaN	4.95131147810673	300	0
36	O1-O2	97617	97674	57	11.4861358913197	6.24374835749981	60.5393609796865	6.14556191389571	67.8302347391462	1.61432520405726	NaN	4.61574921402747	300	0
36	O1-O2	98269	98316	47	12.2490848269016	5.82599729864124	58.8261204376066	12.9045584217697	65.7801358026628	2.103235042733	NaN	4.91617069269446	300	0
36	O1-O2	98486	98548	62	11.4589204436866	5.80757799224865	62.3332240862311	8.27048040567279	65.7801358026628	1.73228007163766	NaN	4.31848888495424	300	0
36	O1-O2	98706	98762	56	11.8703155296467	5.47286976738035	60.9547643678814	9.18843339248475	65.7801358026628	1.61463796563778	NaN	4.77615077062544	300	0
36	O1-O2	98929	98986	57	11.8069343721782	5.50181038226963	62.3183272029489	12.1163502568102	65.7801358026628	1.78408202498983	NaN	4.58531834976388	300	0
36	O1-O2	99189	99236	47	13.6951004389112	5.07624440677528	65.7801358026628	27.3598542271943	65.7801358026628	2.06352448847996	NaN	5.58899049511785	300	0
36	O1-O2	99816	99862	46	13.0843718435625	5.09114739625329	62.7740886641007	24.672769710526	65.7801358026628	2.48973043287409	NaN	5.1354063714162	300	0
36	O1-O2	100228	100288	60	11.0342619401551	5.11571903917359	59.0961997643716	16.6870439577464	65.3522287805285	1.60936282990943	NaN	4.53894213297207	300	0
36	O1-O2	100510	100565	55	11.6271377050704	5.14317223474822	60.6596883580601	49.2592664299045	65.8916283807235	1.85024115666922	NaN	4.55722184580257	300	0
36	O1-O2	100753	100820	67	10.7752834659085	5.81535543803223	61.2690416042666	38.9921679898332	65.8916283807235	1.60968051086789	NaN	4.03689131997039	300	0
36	O1-O2	100975	101028	53	12.624256514406	5.78849813524833	65.3522287805285	20.3404130798156	65.8916283807235	2.04250936043036	NaN	4.84664189474533	300	0
36	O1-O2	101117	101172	55	11.666157056605	5.83889744413422	61.9154618893354	17.1387164511811	65.8916283807235	2.1297508937723	NaN	4.27468810789441	300	0
36	O1-O2	101350	101396	46	13.5005229403333	5.80299270839852	64.8653088936713	14.9495326560418	65.8916283807235	1.9421498245982	NaN	5.32812114485483	300	0
36	O1-O2	101550	101593	43	13.188254247506	5.90074472804279	61.5410334636815	14.107483821326	65.9622765429056	3.79267263665085	118	4.59336042035461	117	0
36	O1-O2	101785	101830	45	12.8289884912279	6.20510541945477	61.0874829022918	10.0450105767182	65.9622765429056	2.48490865642861	NaN	4.89934133782609	300	0
36	O1-O2	102396	102450	54	12.5034119269239	6.19898139826835	65.506848882024	6.32634769527956	66.5874772417323	1.88502917441998	NaN	4.86204917502343	300	0
36	O1-O2	102795	102853	58	11.7915366956822	6.55016261389777	63.0984094724223	4.81304809745742	66.5874772417323	1.77027014926929	NaN	4.55495609499864	300	0
36	O1-O2	103149	103204	55	12.7380571477042	6.54914922510782	65.5244512880809	6.39249313205749	66.5874772417323	2.81952112151001	131	3.82266613391776	130	0
36	O1-O2	103550	103609	59	12.2436860990194	6.55932169050458	65.7480704765369	5.08560363277814	66.3622709658953	1.97195364781279	NaN	4.68927392472009	300	0
36	O1-O2	103965	104023	58	12.1342005010693	6.59404966441801	64.9603324525391	5.6620817319572	66.784903342881	1.87319340167524	NaN	4.23222133783812	300	0
36	O1-O2	104143	104191	48	12.5291659249286	6.34204750017904	61.1004575664946	7.2866854243655	66.784903342881	3.33314512314344	126	3.94686181202868	125	0
36	O1-O2	104776	104822	46	13.5692861954657	6.46161118413532	64.2014813032461	8.7346804696576	66.0750440152878	2.07714745902995	NaN	5.40320980448021	300	0
36	O1-O2	104960	105012	52	11.831019318457	6.33087740306267	59.5346371667105	8.28506286363798	66.0750440152878	1.93920597242084	NaN	4.59109359644252	300	0
36	O1-O2	105175	105224	49	12.9527301857863	6.21964488680125	63.0472387944108	10.0870165402478	66.0750440152878	1.86055843310079	NaN	5.19020601503641	300	0
36	O1-O2	105586	105634	48	13.4737531466837	6.28207116090565	65.2316885333769	10.5457145299972	66.0750440152878	2.20867913097023	NaN	5.21012203695351	300	0
36	O1-O2	105795	105842	47	13.8110132993788	6.21783688519061	65.8287491815113	14.812668169313	65.8549381721532	2.09564299592957	NaN	5.41981295153418	300	0
36	O1-O2	106017	106070	53	12.3937550107711	5.91160584278559	63.5565692841909	9.58675930110843	65.8549381721532	1.91775610945795	NaN	4.89344981068983	300	0
36	O1-O2	106230	106287	57	11.688745884158	5.95301485479567	61.9198098814492	8.49861949235652	65.8549381721532	2.17017649076236	NaN	4.52650872659266	300	0
36	O1-O2	106724	106778	54	11.7940581749404	5.96400461595602	60.6286675315486	11.5331393593883	65.8287491815113	1.88872223200423	NaN	4.52263158679067	300	0
36	O1-O2	107190	107237	47	13.5485401857543	5.88099787196342	64.6753418718314	15.1274790161269	65.5210754254657	2.10146760003604	NaN	5.48844663642508	300	0
36	O1-O2	107419	107485	66	11.12132218372	5.93464951198388	61.5237252535006	10.225624859756	66.2108236516727	1.38048870877638	NaN	4.22694919138694	300	0
36	O1-O2	107623	107690	67	11.2989065182568	5.95173364986792	64.7392947419142	17.4882779714535	66.9223673691266	2.16775558540914	154	3.92315176149323	153	0
36	O1-O2	107906	107954	48	13.6141545514056	5.99120112666435	65.5210754254657	15.2582360047277	66.9223673691266	2.00479944990661	NaN	5.54036089860083	300	0
36	O1-O2	108152	108198	46	12.5925396550605	6.50119868000674	59.8033490483883	18.561597038987	66.9223673691266	2.36889062479351	NaN	5.17070807297653	300	0
36	O1-O2	108354	108400	46	13.344537594543	6.48792281603279	64.2595806701001	20.7016777266894	70.19461132687	2.07363333393686	NaN	5.20755345599245	300	0
36	O1-O2	108546	108593	47	13.8659917611696	6.43399928524212	66.4492921187966	14.7442117067663	70.19461132687	2.13880602460623	NaN	5.39262916319236	300	0
36	O1-O2	108929	108988	59	12.1131160813851	6.52424079658886	63.7603554815652	8.56898688690058	70.19461132687	1.82912368546491	NaN	4.4918636855927	300	0
36	O1-O2	109132	109187	55	13.3407839729436	6.60390117687807	68.521650211587	10.3237877504614	70.19461132687	1.86876288657534	NaN	5.05012842484481	300	0
36	O1-O2	109333	109390	57	12.7150306465684	6.46095694965701	65.5764779709087	9.38086786674194	70.19461132687	1.72700453020565	NaN	4.75652000880148	300	0
36	O1-O2	109956	110003	47	12.9947268117259	6.2965971184322	61.7523044777966	8.04665791351961	70.19461132687	2.17503533989448	NaN	5.54746301245497	300	0
36	O1-O2	110149	110215	66	11.0330897786763	6.30105079455592	62.0221291896103	4.90548294634166	70.19461132687	1.42969239316673	NaN	4.25109908537172	300	0
36	O1-O2	110359	110431	72	10.5628590098552	5.99226877423984	61.7959865831171	3.95638497922686	65.1639498613758	1.54455244271401	NaN	3.94673207056651	300	0
36	O1-O2	111431	111489	58	11.8532502515369	5.96120602244341	63.863119389383	6.67969360346934	66.7235640458817	1.73291941036342	NaN	4.39138003487356	300	0
36	O1-O2	111626	111673	47	13.8415381800119	5.9807880077343	66.7235640458817	11.0450028545402	66.7235640458817	1.92534601446372	NaN	4.73124285100396	300	0
36	O1-O2	111860	111920	60	11.9172668767154	6.0001667263013	63.6830727301522	8.26923064814421	66.7235640458817	2.77883389636266	135	4.25891593868876	134	0
36	O1-O2	112051	112120	69	10.4645247722349	6.0289425598053	59.4714746667578	6.47668590656868	66.7235640458817	2.41923335134577	126	3.40910140264674	125	0
36	O1-O2	112285	112342	57	12.0902025619044	5.97841549324489	63.1836990815936	11.8207438302898	66.7235640458817	1.92164113427903	NaN	4.48456488103603	300	0
36	O1-O2	112493	112542	49	13.3568525220051	5.9229981432268	65.4024924543178	14.3947022151751	66.7235640458817	2.05744189999377	NaN	5.55218716589595	300	0
36	O1-O2	113126	113184	58	11.8661413434412	5.87773425617408	62.2820599547009	11.5799689159446	65.4024924543178	1.65741429382159	NaN	4.57470089125281	300	0
36	O1-O2	113363	113407	44	12.7296089832993	5.57639000474917	59.9336963692307	13.4436056350358	66.0923551107617	2.29014243986362	NaN	5.28668680164624	300	0
36	O1-O2	113563	113608	45	12.723468302834	5.50373650848416	61.3370236651031	13.5810522552416	65.1666276173138	2.17169538524829	NaN	5.12509460149722	300	0
36	O1-O2	113792	113851	59	11.4774345324189	5.09277884933521	60.7995362272935	18.6613410479273	65.1666276173138	1.70344635189181	NaN	4.50465041185798	300	0
36	O1-O2	114141	114200	59	12.1253465725972	5.42266958654312	65.1666276173138	20.788443981334	65.1666276173138	3.33089600837249	119	4.20464539889209	118	0
36	O1-O2	114464	114521	57	11.5809219606114	4.71225845299473	60.570765728398	20.0472401319096	65.1666276173138	1.67151891386027	NaN	4.62298190046862	300	0
36	O1-O2	115132	115190	58	11.906229501798	4.65099530226843	62.8471830921585	22.6229019000099	65.1666276173138	1.854739499425	NaN	4.73274605451395	300	0
36	O1-O2	115551	115597	46	12.5628521351163	4.16298650241761	58.8087455578688	26.5136504109625	63.2897434275461	1.98797929040218	NaN	5.18205499728506	300	0
36	O1-O2	115882	115936	54	12.1293967552485	4.60272989835676	62.399900070918	23.6260563798095	63.2638000036497	1.75766853711198	NaN	4.72963533129226	300	0
36	O1-O2	116284	116333	49	12.0635554152122	4.66249235172883	58.8933757497886	23.1065722209994	63.2649339312516	1.99613568374986	NaN	4.79538080521293	300	0
36	O1-O2	116868	116915	47	13.0130896306416	5.46565150996957	61.7236473680337	15.1881482484862	64.4759055381554	2.07984000939578	NaN	5.14222170674814	300	0
36	O1-O2	117098	117154	56	12.2454259879409	5.52372399748413	63.2649339312516	13.148642020374	66.1916117022976	2.51676125240803	145	4.75111038127592	144	0
36	O1-O2	117357	117422	65	11.218204484454	5.93885272963438	63.0365136404183	10.6634066058513	66.1916117022976	1.4108550541151	NaN	4.34643632278344	300	0
36	O1-O2	117783	117835	52	12.5587903003596	6.29307753455999	64.4759055381554	12.212647023712	66.831269828398	1.96896829499346	NaN	4.79312626308167	300	0
36	O1-O2	117985	118042	57	12.6495172526951	6.26616520286385	66.1916117022976	12.4764784564985	66.831269828398	1.9000447788997	NaN	4.6267246684852	300	0
36	O1-O2	118181	118249	68	10.9741553497408	6.29840788085832	63.3840055755185	9.58857269309358	66.831269828398	2.78479652326511	129	3.5206958662796	128	0
36	O1-O2	118386	118431	45	13.4113842243696	6.46081676360287	63.8846590778251	10.5096586912495	66.831269828398	2.32208089812668	NaN	5.37147922626828	300	0
36	O1-O2	118595	118641	46	12.6995724290799	6.59920249420069	60.8964499174328	7.54710226687304	66.831269828398	2.10635973002609	NaN	4.92702403407223	300	0
36	O1-O2	118977	119023	46	13.4014393555379	6.48602165849674	63.702970406245	10.5787781675237	66.8999752842278	2.13545703818377	NaN	5.51083736396519	300	0
36	O1-O2	119183	119231	48	13.2294925783812	6.59382909056805	63.8931630080005	8.26429636395747	68.1442863257247	2.14558925022272	NaN	5.14864339572741	300	0
36	O1-O2	119807	119851	44	14.1860928093428	5.59249813843696	66.8760176604317	12.8870236148397	68.1442863257247	2.43395245089538	NaN	5.6498406000888	300	0
36	O1-O2	119999	120048	49	13.6721043757281	5.67495160299344	67.463183715651	12.1879809791773	68.1442863257247	2.1227191133223	NaN	4.93394790108782	300	0
36	O1-O2	120404	120450	46	13.0223569813354	5.10457716098172	62.1390390814863	11.7672282247324	68.1442863257247	2.30667756078277	NaN	5.02135614402653	300	0
36	O1-O2	120948	120993	45	12.2654848844039	4.6865066596654	59.476194694932	23.6558856474412	67.463183715651	2.24070461435593	NaN	4.75543376155537	300	0
36	O1-O2	121507	121564	57	11.4818379229367	4.06523145940977	60.0965071189903	21.6091432577244	61.6977509085339	1.71542690275425	NaN	4.59016790589454	300	0
36	O1-O2	121821	121868	47	12.5295652602968	4.53926420533986	60.3326288620276	24.1692466807071	62.6967731825431	1.97830401927953	NaN	4.60216963570023	300	0
36	O1-O2	122179	122223	44	12.6866566921157	4.60856447720839	59.6206623249726	24.6983242462024	62.6967731825431	2.22427377061425	NaN	4.95357740657267	300	0
36	O1-O2	122638	122703	65	10.8753510629688	4.13964745007492	60.4100386740333	18.9468326679446	62.6967731825431	1.61428212615839	NaN	4.11758749704899	300	0
36	O1-O2	122897	122945	48	12.694768185842	3.63740397245079	61.5451420744015	26.6746002721838	62.6967731825431	1.78002801305293	NaN	4.63389442593226	300	0
37	F7-C3	12833	12877	44	3.43627092954912	1.78151026001014	10.7516170798228	3.72047285620591	14.9753252716511	0.412946521762501	172	1.709294990523	171	0
37	F7-C3	84321	84362	41	3.1624792604893	1.90944540871704	10.6262334925131	2.74309519548777	14.503669270631	0.619444083551084	182	1.30198711262756	181	0
37	F7-C3	131917	131967	50	3.16550028847971	1.76136300442094	11.7659083456633	3.22988436714335	16.6839125180479	0.6006365101006	151	0.722998585860651	165	0
37	F7-C3	210811	210886	75	4.11787477502123	1.75494463181672	15.064324951768	5.50578734048614	15.064324951768	1.25025446155658	83	1.7789363510072	82	0
37	F7-C3	400449	400558	109	5.36710529396524	1.40489722671924	22.7863585430172	14.5945638424282	22.7863585430172	0.661334385270836	83	0.640318343904523	82	1
38	C3-Fz	129510	129590	80	4.79906359214744	1.47524566770393	22.0478291008918	10.5824034225954	22.0478291008918	0.745132925003026	112	0.616301086727072	111	1
38	C3-Fz	276262	276374	112	6.07568283132727	1.96943506902766	33.6908435183537	15.4318774136803	33.6908435183537	0.262299084861702	NaN	5.2401907906396	300	0
38	C3-Fz	276680	276766	86	6.04708060831344	2.02104010677275	27.6524166066783	17.2594875981421	33.6908435183537	0.258871768099792	NaN	5.9747452892318	300	1
38	C3-Fz	400427	400583	156	6.12494263370706	1.32937919559328	32.9516601646501	21.2278639266981	32.9516601646501	0.351441475829069	NaN	6.74249781505786	300	1
39	F8-C4	95443	95489	46	2.53615555569707	1.28719674353545	8.5075772032421	3.88205702317257	9.46581953856476	0.20213167301059	141	1.41373974605618	201	0
40	C4-Fz	210811	210897	86	3.56721763962865	1.14077184745374	13.2959221841915	9.77826097275508	13.2959221841915	0.583150729870221	102	1.11503160713234	101	0
40	C4-Fz	276273	276352	79	3.62862135852052	1.26942667645249	15.0135466087631	8.17086554267547	15.0135466087631	0.723807672925652	88	0.363337957277072	87	0
44	C4-Pz	224265	224312	47	1.75650970747136	0.942389551943013	5.76432324814481	3.47408294755047	6.54440625563604	0.426161769060146	186	0.731951028323551	185	0
44	C4-Pz	599942	600002	60	11.741213541922	1.0643769827342	57.3733899445562	121.684433606008	57.3733899445562	1.18760347935562	NaN	4.32621413175613	300	0
47	T4-P4	599954	600002	48	18.3126829909986	1.15226357206146	81.1449167372935	252.580774413768	81.1449167372935	2.82359619375633	83	2.11745051286664	82	0
48	P4-Cz	131749	131803	54	1.79777702773807	1.00670172995237	5.58523281555154	3.18911384860313	6.81325330293763	0.263434517005447	159	0.968576717249144	158	0
49	T3-F3	210789	210913	124	5.01423756074301	1.34208259819233	20.5224655481273	13.9589040210523	20.5224655481273	0.57991962152194	84	0.635626805931423	102	0
49	T3-F3	276285	276377	92	4.66859996890908	1.7576634960036	21.772813211061	7.05507864369281	21.772813211061	0.180732122800786	NaN	4.22335669412729	300	0
49	T3-F3	400448	400540	92	6.71185046524846	1.27717442585372	28.8779334266133	27.6174843830004	28.8779334266133	1.16677022513873	83	0.362033048307818	82	1
49	T3-F3	507248	507330	82	3.12337999284142	1.28112611737745	11.2472592290771	5.94382313795068	11.2472592290771	0.226039105295519	87	0.389996048625468	95	1
50	F3-Cz	210769	210890	121	5.69278689080969	1.18862570303242	27.1376868249616	22.9382149486284	27.1376868249616	0.875488257668708	83	4.15961613395365	82	0
50	F3-Cz	276477	276565	88	6.45195068716079	1.30937371979916	30.7544964169598	24.2803441810419	30.7544964169598	0.33740282083742	NaN	6.32808198427683	300	1
50	F3-Cz	400416	400572	156	5.89137990710141	1.08946992350165	34.7030981651673	29.2417639963647	34.7030981651673	0.244082877997053	NaN	5.6407935438188	300	1
50	F3-Cz	507243	507315	72	3.74761225094801	1.03505712647872	14.9228272822556	13.1093349558452	14.9228272822556	0.445169713989488	83	0.529217918156291	82	1
50	F3-Cz	541005	541078	73	3.1125662467231	1.04570516589062	12.814775108055	8.85969354864783	12.814775108055	0.185607759742922	NaN	4.45792060607408	300	1
50	F3-Cz	573960	574030	70	5.93267049404809	1.04888125315019	27.6801798594875	31.9924727922618	27.6801798594875	1.27047762158126	83	1.37716775587628	82	1
50	F3-Cz	581498	581590	92	4.6359954504343	1.0365263714882	20.3450400358841	20.0043889594663	20.3450400358841	0.271818504394316	NaN	6.73833096189857	300	1
