nChannel	strChannelName	indStart	indStop	indDuration	Event_RMS	Window_RMS	EventPeak2Peak	SNR	Amplpp	PowerTrough	Ftrough	PowmaxFR	fmax_FR	EvPassRejection
1	Fp1-Fp2	346578	346636	58	3.91291544312179	1.13489425788538	14.1539728821969	11.887489018437	15.1893436422807	0.690951404967301	70	0.809781482492546	82	0
2	Fp1-F7	346588	346681	93	3.55169817276097	0.95830905012343	16.6955082731113	13.7360203177145	16.6955082731113	0.292778277183335	NaN	2.78027243818699	300	0
2	Fp1-F7	509185	509244	59	3.53661610725613	1.14466048509017	14.9932542818374	9.5460226301471	14.9932542818374	0.932545566394971	160	1.14264436686834	159	0
2	Fp1-F7	586693	586739	46	1.82506007198793	0.958098112547109	5.77356938480717	3.6285604157931	6.27143820397374	0.341950862719204	180	1.09091530348702	179	0
3	F7-T3	321058	321125	67	4.30730784029389	1.54419769300463	16.3600317459969	7.78047344168847	28.869138475757	1.00464711739092	94	2.49805435927453	93	1
3	F7-T3	481807	481865	58	6.87400789259039	1.73055179409556	30.4956545994614	15.7779599394593	30.4956545994614	0.924202247212808	196	3.27126314584523	202	0
3	F7-T3	509203	509493	290	11.5141165106832	1.90105640715575	93.6673992822179	36.6835395066748	93.6673992822179	3.22267975393236	120	3.33560733543902	158	0
4	T3-T5	321049	321207	158	11.8963508209397	1.11551406516837	84.016748733571	113.730624750483	84.016748733571	2.77394624069413	93	4.94491796867564	92	0
4	T3-T5	481871	482022	151	4.40210036844072	1.80801698402571	21.6321556330881	5.92809109920888	35.8593311677698	1.03682587194698	79	1.42145686801335	115	0
4	T3-T5	509200	509543	343	10.3115633079103	1.5096732708616	86.1970503513898	46.6533778285539	86.1970503513898	2.53354502642109	112	2.97288450311216	150	0
6	Fp2-F8	509218	509268	50	2.68919613550941	1.14751297905238	10.9052312376994	5.49199008154756	10.9052312376994	0.844392100183002	130	0.933817294707406	167	0
7	F8-T4	37036	37088	52	5.03017868553054	1.63922395268374	20.4705309690208	14.2292841573936	20.4705309690208	0.295828701336991	157	2.705069681546	224	1
7	F8-T4	37183	37223	40	3.43360062284049	1.79118219475489	13.8949856026076	6.23752672958226	20.4705309690208	0.552801655246937	83	0.627503128496028	82	1
7	F8-T4	37484	37542	58	4.16251700620428	1.71137206580256	17.7605018235145	9.3104347684642	20.4705309690208	0.555716877649171	182	1.93185877437738	235	1
7	F8-T4	37806	37850	44	3.55866646275065	1.77753361569512	14.0852654495406	6.73582349737846	20.4705309690208	0.768786495118684	83	1.1078488734529	113	1
7	F8-T4	96018	96122	104	11.4506318975758	1.24925192851596	62.002270306285	84.0153904847706	62.002270306285	2.48461812636726	75	3.55933173341913	104	0
7	F8-T4	481796	481972	176	4.90043339792344	1.0189055523381	27.6356131241929	23.1313576926958	27.6356131241929	0.587353899570741	156	1.72973362889598	237	0
7	F8-T4	509180	509300	120	5.41821678659179	2.10311886819772	28.6348696168766	9.2305929669013	28.6348696168766	0.559976662286373	166	2.43994172867235	268	0
7	F8-T4	509462	509533	71	5.43743400557836	2.2629067586475	23.1807058789885	9.09722216507183	28.6348696168766	0.65276151438361	148	3.19239721681904	245	0
7	F8-T4	510185	510228	43	4.06088695233843	2.51826103670486	15.5388292613406	4.24148711167764	28.6348696168766	0.385157564612181	174	2.39686443669297	300	1
8	T4-T6	37182	37231	49	3.62061149894628	1.74894954272352	13.3640827630977	4.28557689840529	20.8361465654233	0.290995891365654	166	2.22765673861008	300	1
8	T4-T6	96013	96120	107	12.1538586865352	1.33060661209708	69.378503175835	83.4312999672355	69.378503175835	2.25197944026296	74	3.34330221399659	105	0
8	T4-T6	481798	481866	68	5.24621265053083	1.33854667049719	22.5107679405133	15.3611858801707	22.5107679405133	0.699745896326432	67	2.30538093138074	99	0
8	T4-T6	509177	509298	121	4.71528614527438	2.13941797019386	23.2057131852314	4.85763441762804	23.2057131852314	0.916494195148181	NaN	2.13072857801551	300	0
10	Fp1-F3	95952	95996	44	2.45501548343855	1.09048122592329	9.10036990130607	5.06841403614107	9.12970292671584	0.5185257533104	167	1.0280147139489	234	0
10	Fp1-F3	481565	481649	84	3.64469847963238	0.964115604945694	14.709133412686	14.291077902477	14.709133412686	0.707253450445688	82	0.736953974608731	82	0
11	F3-C3	4566	4649	83	3.11042358689008	0.958257921003195	12.9127845297423	10.5359630168219	12.9127845297423	0.307306845910971	NaN	3.16920897283899	300	1
11	F3-C3	20074	20171	97	3.39710774380588	1.06112407129135	14.5476571274466	10.2491136666945	14.5476571274466	0.212577748872491	NaN	1.93271498330344	300	1
11	F3-C3	27061	27136	75	4.36315280749351	0.941207699963387	18.8813903731377	21.4896777748355	18.8813903731377	0.249516807603747	NaN	6.87360758316317	300	1
11	F3-C3	32536	32610	74	2.87518796168502	1.29693690251377	10.6398852486786	4.91467481404422	16.3177661813405	0.193532955569386	NaN	3.75485102977272	300	1
11	F3-C3	62124	62232	108	6.37591892020669	1.11245020951454	30.0025079753779	32.8491704805245	30.0025079753779	0.289094143960581	NaN	7.05592692470572	300	0
11	F3-C3	64535	64632	97	3.75175048942525	1.09106188917468	15.2037232758109	11.8241280282534	15.2037232758109	0.266252834797098	NaN	4.65823996957556	300	1
11	F3-C3	67049	67126	77	4.30539499261879	1.13945520532059	16.9544206965375	14.2768201742199	16.9544206965375	0.712634675893032	83	0.48215706665667	82	1
11	F3-C3	144133	144244	111	4.51246585547856	1.37657165284493	21.660097150213	17.0882899508237	21.660097150213	0.207389559020594	NaN	5.10118811751112	300	1
11	F3-C3	144459	144554	95	3.98055052267901	1.50909171774378	15.3764390963704	13.154443495405	21.660097150213	0.476606648268667	83	0.328280743670414	82	1
11	F3-C3	177640	177746	106	3.15028790364361	1.07325479189415	12.762189324228	8.61578432283778	12.762189324228	0.263171407259712	83	0.209063888194781	82	1
11	F3-C3	259334	259425	91	3.2181514241663	1.0357022699055	11.9781784320932	9.65479583009447	11.9781784320932	0.54654846073393	75	0.476037940782404	83	1
11	F3-C3	273686	273813	127	5.2985518537736	1.05253786481646	23.3722379987563	25.3418852971584	23.3722379987563	0.282972292153201	NaN	6.88137799364404	300	1
11	F3-C3	330690	330802	112	4.51214311692374	1.04505209755761	25.9922012929994	18.6418860885331	25.9922012929994	0.822025831887579	99	3.17665383863858	98	1
11	F3-C3	332056	332151	95	3.56250750800886	1.06701633648854	13.6051463509441	11.1472935829452	13.6051463509441	0.426005820417033	83	0.409523122758733	82	1
11	F3-C3	336003	336077	74	3.9057183188172	0.997722011411719	16.2306775334527	15.3243735604007	16.2306775334527	0.63926650520825	83	0.42706239626782	82	1
11	F3-C3	337260	337370	110	4.72559351336872	1.21019484944429	21.2156623383584	15.2476222096633	21.2156623383584	0.200977130949791	NaN	6.45325753437265	300	1
11	F3-C3	379940	380013	73	3.5000180448749	1.01295943332701	14.2556310757974	11.9386840884101	14.2556310757974	0.648064465756702	83	0.36259023475911	82	1
11	F3-C3	388931	389071	140	5.32546757230301	1.08377803250764	25.0356096332644	24.1454220627675	25.0356096332644	0.282266636991855	NaN	5.69049186638609	300	1
11	F3-C3	408273	408390	117	3.92145019376547	0.970615037440385	17.8666585151561	16.3229772748199	17.8666585151561	0.173087952653032	NaN	7.07980024236338	300	1
11	F3-C3	411123	411186	63	4.60699212103938	1.54781910662468	19.2977548689033	8.85920053226601	23.7715905540169	0.58222324775006	97	0.397394898392671	96	1
11	F3-C3	434930	435016	86	3.1553434366635	1.00235075914106	13.097532684929	9.90954752360686	13.097532684929	1.2784007839221	83	1.73325452012284	82	1
11	F3-C3	457318	457416	98	3.83453455276024	1.00873170641617	16.2346116812414	14.4502036421017	16.2346116812414	0.431558336072875	83	0.267398075381666	82	1
11	F3-C3	466559	466618	59	2.52180613302804	0.993191204727403	8.672763515547	6.44699989647657	8.672763515547	0.314835600913894	83	0.435337734743596	82	1
11	F3-C3	479482	479577	95	4.05677787897299	1.48721268227091	16.5091489466625	7.4407428947449	21.6366552000514	0.475942297229833	83	0.431467836776646	82	1
11	F3-C3	481552	481669	117	7.73222551797596	1.1452694472869	33.7734841992536	45.5820312163135	33.7734841992536	1.65569453118839	83	4.37948275418061	82	0
11	F3-C3	505284	505374	90	5.05766593351516	0.988073527123756	22.4563521384331	26.2012344352981	22.4563521384331	0.181159844955465	NaN	5.71892038229082	300	1
11	F3-C3	506853	507008	155	5.51189010975995	1.14313532759884	34.4787320515179	23.2490819359138	34.4787320515179	0.299731072682627	NaN	5.31021293030616	300	0
11	F3-C3	509253	509307	54	4.18738086873255	1.4387289783942	17.3340358448303	8.47084913007563	18.4279921141203	0.680072450271824	164	2.25799525949284	163	0
11	F3-C3	554272	554352	80	3.59304804821669	0.991871613365836	14.6981956389763	13.1224560602342	14.6981956389763	0.959465162860019	83	0.297112063454548	82	0
11	F3-C3	598107	598213	106	4.15409254059638	1.02274108409407	18.0071598808574	16.4976060900316	18.0071598808574	0.488813555140515	83	0.475515211275388	82	1
12	C3-P3	36875	36918	43	2.88245956017942	1.04081145970914	10.5349001270916	7.66976955539731	10.5349001270916	0.746067157735744	61	0.688397135546975	82	1
12	C3-P3	286185	286231	46	1.71127138081212	0.955989607620241	5.6322649808292	3.20428718024473	5.77407853795507	0.4243824199486	163	0.425001993191765	162	0
12	C3-P3	481529	481666	137	5.28246700485196	0.987177783301871	27.3005322032732	28.6340540461058	27.3005322032732	0.860995168982826	83	0.363069750853088	82	0
13	P3-O1	131414	131466	52	1.67267550854379	0.968107395257052	5.39481057507147	2.98521984906084	6.76545423033431	0.133873216142794	140	0.749522165466036	198	0
18	Fz-Cz	62146	62233	87	4.5604287856592	1.02825212178116	18.9186023948923	19.6703518299716	18.9186023948923	0.63907119217858	83	0.635416272499707	82	0
18	Fz-Cz	144152	144244	92	2.79257786717961	1.14447121743148	11.8011853316382	5.95389036613858	12.9269389050862	0.258564265701257	NaN	2.57138792722527	300	1
18	Fz-Cz	181200	181305	105	2.84239244749537	0.980966035244924	10.6599358939049	8.39576240084545	10.6599358939049	0.296048490215195	83	0.354770056711396	82	0
18	Fz-Cz	332065	332139	74	2.98602767362572	0.986798770020963	10.9358100409561	9.15652019607244	10.9358100409561	0.215275146994324	NaN	3.90197656307903	300	1
18	Fz-Cz	388948	389026	78	4.23699649157476	1.00203844447715	16.7590530648381	17.8791735718287	16.7590530648381	0.209303983632497	213	0.301184886281651	300	1
18	Fz-Cz	408325	408401	76	2.94385242836054	0.973226791088729	11.4374221792036	9.14963900887296	11.4374221792036	0.452862555804291	83	0.361890220050457	82	1
18	Fz-Cz	434933	435010	77	2.23724495893029	1.00193005941041	7.08723150777694	4.98599988078419	7.40596070384235	0.78637295861753	89	0.194548273364406	88	1
18	Fz-Cz	479497	479574	77	3.15047458814433	1.21620389739036	12.8776593524159	6.71025740909602	14.8750848793606	0.605760442346115	83	0.34079848417271	82	1
18	Fz-Cz	481557	481645	88	5.63724595750063	0.935798548686806	26.2010896925893	36.2885180671975	26.2010896925893	1.37524695664456	83	3.02109882558088	82	0
18	Fz-Cz	599953	600002	49	10.9105489786041	1.04472898532623	49.7580626587991	109.065129229801	49.7580626587991	0.830752227236348	83	1.12740130761618	82	0
19	Cz-Pz	12519	12568	49	1.87284218576105	0.952771967464014	6.61166622068599	3.86388707130066	6.61166622068599	0.29399829465978	184	1.14060616088269	183	0
20	Fp1-Fz	36626	36684	58	2.10861930652294	0.975078546730307	7.16042085362547	4.67645925138872	7.16389081508604	0.380179457750791	83	0.358782109419563	82	0
20	Fp1-Fz	95159	95249	90	2.88434595084525	0.996748724743857	10.6437731028459	8.37381419611012	10.6437731028459	0.204899810860539	247	0.215920071318804	300	0
20	Fp1-Fz	346592	346701	109	3.88370463188978	0.970368232537725	18.1279762991811	16.0184040922737	18.1279762991811	0.690270944011447	83	0.297467088146568	82	0
20	Fp1-Fz	434932	435000	68	3.04806191144652	0.970998604258181	10.81351056859	9.85395005671698	10.81351056859	0.382357402949519	92	0.445845997187001	97	1
22	F7-F3	62138	62215	77	3.4104222555021	0.998576382356227	13.8576759307097	11.6641669489431	13.8576759307097	0.539445142445778	88	0.35032357080377	87	0
22	F7-F3	95153	95232	79	3.53926140362141	1.0694271816589	13.683153358197	12.1659141194349	13.683153358197	0.289790738767843	NaN	4.04692145670153	300	0
22	F7-F3	95950	96003	53	2.29206373269266	1.2645072251581	8.2409461957743	4.59359247009514	13.683153358197	0.695587831876065	96	0.745842057939169	130	0
22	F7-F3	273708	273794	86	3.55924434087525	1.00384587944717	13.9709679080672	12.5713386323	13.9709679080672	0.247081010449873	280	0.257695621027767	300	1
22	F7-F3	337274	337344	70	2.99630925418386	1.10829977453838	11.4320006682333	7.30901379307887	11.4320006682333	0.323380620967817	89	0.507540534364179	88	1
22	F7-F3	388962	389033	71	2.90541251767555	1.04298577020352	11.7825214073988	7.75994852006555	11.7825214073988	0.406075225021006	88	0.268860777650913	87	1
22	F7-F3	408275	408381	106	2.91205391581665	0.993830446009477	11.5347853631695	8.58567072702495	11.5347853631695	0.312001351649744	83	0.298533263277354	82	1
22	F7-F3	481559	481648	89	3.94854373698829	1.07355305321686	15.7642511100249	13.5277909413447	15.7642511100249	0.563250156890245	83	0.453473852153567	82	0
22	F7-F3	548121	548217	96	2.70963773940318	1.07234767499798	10.3778790328708	6.38485789648264	10.3778790328708	0.247124225972455	NaN	3.10042119733105	300	1
23	F3-Fz	479482	479545	63	2.93909746593024	1.02336198497928	10.2519226326808	8.24839435614381	10.2519226326808	0.218313981559473	NaN	2.75312181213982	300	1
23	F3-Fz	481547	481620	73	4.91437073444861	1.01306314366929	21.9802085398282	23.5322146423751	21.9802085398282	0.320374489217286	NaN	5.87905512641671	300	0
24	F8-F4	9192	9237	45	1.82827620092761	0.910224972263676	6.17609072010573	4.03446655269987	6.51036189127332	0.0915741983688187	184	1.02733863041245	214	1
24	F8-F4	93646	93696	50	1.53327419967163	0.940144924308204	4.89870541305006	2.65980650832101	5.64699135776795	0.332710132650632	175	0.730017170077016	174	0
25	F4-Fz	181242	181311	69	2.02967905578674	0.958562917070424	6.9710295846636	4.48346199553293	6.9710295846636	0.315553419447976	101	0.154381088797113	100	0
25	F4-Fz	405774	405822	48	1.74958794947042	0.9345414884144	5.70899738068378	3.50488993924011	6.49703453355538	0.150785450884114	138	0.991566776806018	214	0
26	T3-C3	27062	27137	75	2.13681612143812	0.964512813078445	7.99269011652665	4.9081553511097	7.99269011652665	0.259907973289158	83	0.261074950567008	82	1
26	T3-C3	481565	481654	89	5.42508369489041	1.92200163967978	25.3967114410064	9.20786011204609	31.0903459013403	1.06864350156003	83	3.01651686694986	82	0
26	T3-C3	481870	481957	87	3.80902278276127	2.10033505515147	14.9238735969517	4.48844100236996	31.0903459013403	0.741844761859775	74	0.99022135794309	113	0
26	T3-C3	509235	509384	149	11.8669084088267	2.06005984161896	71.9781885604864	40.4655870198796	71.9781885604864	3.43214404302399	129	3.53894813803015	155	0
26	T3-C3	509494	509545	51	5.73198779463273	3.72882039536547	22.9374410982524	9.09288906803604	71.9781885604864	1.39228957580899	145	1.63033126639305	144	0
27	C3-Cz	95174	95247	73	4.09777031397416	0.938690175103429	14.5523200995971	19.0568308522211	14.5523200995971	0.418766875425965	100	0.456389930480816	101	0
27	C3-Cz	273705	273777	72	4.04861192714544	1.03860842969628	14.8080215506322	15.1952767445243	14.8080215506322	0.198988105757147	NaN	5.56685420908363	300	1
27	C3-Cz	481533	481670	137	5.9277536450918	1.10224473433703	27.2446518423048	28.921727303772	27.2446518423048	1.16288430602858	83	3.93803296521467	82	0
27	C3-Cz	506901	506975	74	5.42626197236306	1.07778600455599	25.4874551475261	25.3475760349375	25.4874551475261	0.339409357486121	NaN	5.25008701951445	300	0
27	C3-Cz	509200	509304	104	3.89944243063751	1.31612429602117	19.6571935851005	8.7783160570805	19.6571935851005	1.33029931117125	160	1.35651697673823	159	0
27	C3-Cz	548155	548210	55	3.15190187518907	1.00249099994843	12.4810666037438	9.8851761459646	12.4810666037438	1.15597206557801	83	1.67192113059702	82	1
27	C3-Cz	599928	600002	74	9.06996936483173	1.01438927892113	49.3912506745259	79.9470308858187	49.3912506745259	0.55304193805437	61	0.604151643065061	82	0
28	T4-C4	36865	37022	157	1.93155679568137	1.75436196540369	10.3307846035753	1.30509960558586	21.0940652067806	0.388325561473687	61	0.678265901667088	82	0
28	T4-C4	37194	37235	41	3.64561735035563	1.75646967908637	13.74150603999	4.38660499248661	21.0940652067806	0.358961672659428	146	2.42125655183165	300	1
28	T4-C4	96012	96128	116	11.3874307272653	1.2522181117089	66.589754849644	82.697338788536	66.589754849644	2.09649815916191	75	2.96716219087825	102	0
28	T4-C4	481797	481867	70	5.55339387143022	1.26077631898106	25.3639270125463	19.401748359575	25.3639270125463	0.805845925997004	80	2.29397330889656	102	0
29	C4-Cz	36613	36682	69	2.39792396812329	1.01366307964406	8.33145517436606	5.59607543425817	8.33145517436606	0.28633781432881	83	0.439656072083194	82	0
29	C4-Cz	245693	245733	40	1.75426861444251	0.923003264678117	6.3737826970827	3.61231581694273	7.465275566107	0.26078871850925	183	0.939233172548425	182	0
29	C4-Cz	599953	600002	49	9.68036005668842	0.867600375349009	43.383772662245	124.492606409476	43.383772662245	1.13225886529431	83	0.964450940595192	82	0
30	T5-P3	321047	321121	74	6.08483236306499	2.34276948664298	24.4485052951479	6.74587233578092	63.7995171808547	1.26932388722335	119	1.17759554565318	118	1
30	T5-P3	478432	478476	44	1.7953065114555	1.0158935209137	5.48603528187996	3.1230636178405	6.52318354944347	0.0996388703458526	126	0.983735336593346	207	0
31	P3-Pz	599944	600002	58	8.48504740250697	1.00346517290363	41.8466608107048	71.4996535718356	41.8466608107048	1.76401150304335	74	1.14043723984693	82	0
34	Pz-O1	599945	600002	57	5.21900780773871	1.0199499117437	26.0989315658443	26.1829275319165	26.0989315658443	1.04958052460502	78	1.06834885590752	82	0
35	Pz-O2	127487	127530	43	2.15453007760218	1.04087014184353	7.09933161756186	4.28461714488974	7.09933161756186	0.380062199786013	185	1.01075126187725	184	1
36	O1-O2	218815	218864	49	1.74175873058769	0.946098861888167	5.47777545882035	3.3892449072353	6.26582886109457	0.408645478835176	187	0.831067870472414	186	0
37	F7-C3	62131	62225	94	4.37963572796567	1.05964933864224	21.2309820450584	17.0825081712621	21.2309820450584	0.264075829366241	NaN	5.27495714721645	300	0
37	F7-C3	388934	389047	113	3.86708074911054	1.05457803147159	14.6894962203487	13.4464933488339	14.6894962203487	0.274088668941306	NaN	4.75439384256638	300	1
37	F7-C3	481567	481668	101	6.66225472020944	1.32886264455859	27.6686130006096	25.1351962222105	27.6686130006096	1.57612565065708	83	3.90901394849357	82	0
37	F7-C3	509185	509313	128	4.92472791929752	1.49032528483343	27.2094329961374	10.9194897209214	27.2094329961374	1.05694983305763	165	2.48434367174051	164	0
37	F7-C3	598112	598211	99	3.86386169383752	1.06251653653671	15.8304855141215	13.2242712649863	15.8304855141215	0.540643576157447	83	0.507706325264294	82	1
38	C3-Fz	32659	32726	67	4.10971276777264	1.10586538113185	18.7255028429647	13.8107865669613	18.7255028429647	0.413110035376722	NaN	3.38109483048123	300	1
38	C3-Fz	36873	36932	59	3.32348084504687	1.1161786893541	12.0713971189592	8.86581994724545	12.0713971189592	0.633332573710773	80	0.611850938140489	82	1
38	C3-Fz	62130	62235	105	5.46314649342772	1.05678432817742	24.9789259571598	26.7247077131261	24.9789259571598	0.756959306525857	83	0.589901134746191	82	0
38	C3-Fz	64549	64629	80	3.23885508037169	1.05350193014888	11.631527474845	9.45175294772083	11.8367403643679	0.404457379382847	83	0.392433672191647	82	1
38	C3-Fz	95148	95245	97	4.46283395670016	1.00474340641919	17.9307839608303	19.7292750781683	17.9307839608303	0.613449651922276	83	0.209069703653427	82	0
38	C3-Fz	144140	144255	115	4.60923801634639	1.1830871770132	23.2376770697517	15.178357440202	23.2376770697517	0.256368689262263	NaN	4.70755974812559	300	1
38	C3-Fz	177679	177749	70	2.75608882350227	1.05229177159111	8.97092698420488	6.85984133851297	8.97092698420488	0.269636545905551	83	0.302502639615443	82	1
38	C3-Fz	181241	181319	78	3.77782707066725	1.03904267586131	14.5762961835719	13.2195714899263	14.5762961835719	0.206912371866352	NaN	5.53414255930557	300	0
38	C3-Fz	273686	273795	109	5.54107248757578	1.11717248466948	23.0669487223077	24.6006850907548	23.0669487223077	0.668173754253722	83	0.432088666125848	82	1
38	C3-Fz	330715	330790	75	5.51234717368638	1.07246478905467	26.1913308098367	26.4184321085296	26.1913308098367	0.245391652423274	NaN	4.07537741865547	300	1
38	C3-Fz	336011	336091	80	2.86466375637217	1.09210207322877	11.7597523903717	6.88051337966454	11.7597523903717	0.516621455483528	81	0.516657337833016	82	1
38	C3-Fz	388935	389050	115	5.03470083947022	1.09769234593743	21.2189230366601	21.0371095301899	21.2189230366601	0.214882550461792	273	0.215095987186383	300	1
38	C3-Fz	408298	408385	87	3.07947010606215	1.04998257992859	11.3184926542166	8.60176943559136	11.3184926542166	0.286979784476149	83	0.360214754613662	82	1
38	C3-Fz	457338	457413	75	2.94572675539764	0.96028002472914	10.4303777245158	9.40998928230039	10.4303777245158	0.406905985643885	83	0.412606872455622	82	1
38	C3-Fz	481505	481683	178	6.56112369990335	1.12218592516301	35.6852410516682	34.1843098970652	35.6852410516682	1.3447493735521	83	3.37015778254598	82	0
38	C3-Fz	505284	505371	87	4.39857754107935	1.03501401507506	19.0746895965854	18.0605945732425	19.0746895965854	0.214027571548909	NaN	5.74302729051273	300	1
38	C3-Fz	506868	506987	119	7.01125696051032	1.13989630611463	41.0014661217459	37.8321545978685	41.0014661217459	0.460991766170283	NaN	7.10660307580944	300	0
38	C3-Fz	509251	509306	55	4.99283931049354	1.56948312355376	20.1549587638252	10.1200318097338	23.6315661996239	0.95057746459261	161	2.53418280967075	160	0
38	C3-Fz	554268	554353	85	4.38185685297806	0.996398820161015	16.5754683791894	19.339710222119	16.5754683791894	0.968132191565875	83	0.43256888742076	82	0
38	C3-Fz	593945	594015	70	2.85802839341292	1.02315755734592	11.0307821498517	7.80275633942707	11.0307821498517	0.204252041361366	192	0.366950063151751	300	1
38	C3-Fz	595486	595584	98	3.16171300928201	0.952845164547964	13.6752290369044	11.010327156967	13.6752290369044	0.27864549387303	204	0.352129327069093	300	1
38	C3-Fz	598108	598211	103	4.01497891693502	1.0115655390748	16.3988608245614	15.7535518428399	16.3988608245614	0.455242466119773	83	0.492690503519245	82	1
39	F8-C4	37488	37544	56	2.95042280087665	1.28265413208368	11.9958915792749	5.2911415747532	12.2123679562112	0.674675967508745	133	0.677384567641053	139	1
39	F8-C4	84435	84484	49	2.32437230211122	0.950342632939865	8.35137730808838	5.98206266845247	8.35137730808838	0.291826480118003	172	1.3096874393027	171	1
39	F8-C4	509216	509284	68	3.03038305304977	1.45337733722212	12.8384731971664	4.34748697418451	13.7657152006557	0.867396545864002	141	0.95485795479013	174	0
40	C4-Fz	62146	62234	88	3.84404072454149	0.916598493914377	15.462539444026	17.5880495889684	15.462539444026	0.213205374620651	NaN	3.47152697567451	300	0
40	C4-Fz	95146	95231	85	2.9056461528893	1.05406428564434	11.1628208832764	7.59890916574206	11.1628208832764	0.16146289990876	215	0.226421354201049	300	0
40	C4-Fz	181241	181312	71	2.82537265682404	0.995395193698969	10.0213327072468	8.05675944578305	10.0213327072468	0.286891102019373	83	0.327397688587955	82	0
40	C4-Fz	481578	481645	67	4.76547342288826	0.984282807100055	15.8347107455177	23.4407933016048	15.8347107455177	0.756601046775552	117	1.16580055284932	116	0
40	C4-Fz	506889	506963	74	3.90093684023114	0.970521329117407	16.8104485649344	16.1557702647388	16.8104485649344	0.712901486113143	83	0.713373200353552	82	0
40	C4-Fz	554263	554341	78	2.78532169750801	1.00999292058506	9.99786138554589	7.60525999081064	9.99786138554589	0.304015439072534	132	0.344297697869245	134	0
41	T5-C3	144488	144544	56	2.31463111228883	1.08617653723674	7.66951583433298	4.5411174901844	8.94749430782392	1.16273953423651	61	1.27938284344442	82	1
41	T5-C3	481555	481673	118	5.8844653772499	1.14122910903069	29.4551127711725	26.5869392178796	29.4551127711725	1.1487986525954	83	3.44390713412921	82	0
42	C3-Pz	427084	427140	56	1.786301555199	0.972400521696018	6.10983853269578	3.37457578897828	6.27286282779843	0.317255362238612	156	1.0145402073728	155	0
42	C3-Pz	481530	481670	140	5.80131762641427	1.09580981843661	30.8440783295477	28.0274065593924	30.8440783295477	1.11517649888201	83	3.34008936747418	82	0
42	C3-Pz	509252	509305	53	4.6691226681603	1.31535875162939	19.8314244139307	12.6003361274525	19.8314244139307	1.1727862825765	157	2.24624214869122	156	0
45	T3-P3	321059	321171	112	6.17038957520253	1.05794448076202	26.4140025401987	34.0172666884401	26.4140025401987	0.619461207896848	NaN	3.60573887430339	300	1
45	T3-P3	481562	481649	87	3.23078971888044	2.09996335575837	15.7762535617759	2.52046059169098	33.651894643727	0.214900217172433	NaN	2.54612377603205	300	0
45	T3-P3	481870	481932	62	3.55898075826625	2.10364257066381	13.6906825491104	3.05317772837199	33.651894643727	0.648795909195388	97	0.766810022727672	117	0
45	T3-P3	509198	509317	119	14.8185977543562	2.42143759876071	82.9226764142615	37.451365382926	82.9226764142615	3.94463568122736	111	5.10262088164696	149	0
46	P3-Cz	95172	95244	72	3.42676404548243	0.955665199021478	11.546395224253	12.8575096961335	11.546395224253	0.479380329022611	83	0.35866808518603	90	0
46	P3-Cz	273703	273778	75	3.93454907020267	1.06370489665131	13.4191675126816	13.6819379069286	13.4191675126816	0.528754956622007	86	0.255112259743805	85	1
46	P3-Cz	481571	481667	96	2.72174344332919	1.05861405645188	10.3580637443023	6.61026785794816	10.3580637443023	0.510345059121158	95	1.55921969177641	94	0
46	P3-Cz	599930	600002	72	14.0874269240938	0.981952921709905	76.1398125372206	205.817367525766	76.1398125372206	1.37807134199521	83	1.13527732870544	82	0
47	T4-P4	37180	37233	53	3.22541989649985	1.72655275826136	13.2150428537443	4.05858930502637	20.1604003625961	0.139160647292681	169	2.03349627396982	252	1
47	T4-P4	37482	37525	43	4.64214245073734	1.65612164910949	19.6800732185867	8.51703380133642	20.1604003625961	0.9678833718047	236	2.14103339291591	234	1
47	T4-P4	95993	96120	127	10.6092671744901	1.26685820132815	62.3791610359709	70.1317632917796	62.3791610359709	1.77871846767364	76	2.67192804600097	102	0
47	T4-P4	228901	228960	59	1.83084478323336	1.00192994710599	5.95299782094951	3.33909164268723	7.03707349366153	0.235526796955467	151	0.935698644208293	150	0
47	T4-P4	481798	481867	69	5.58045339371701	1.30706092926796	24.7310306666701	18.2283477403591	24.7310306666701	0.686225732911652	82	2.31888227430288	100	0
47	T4-P4	509203	509383	180	4.57686651850179	1.92303481171929	23.2658941490718	6.7589625017313	23.7860380696112	0.903296607051017	108	1.69062844662284	211	0
47	T4-P4	509479	509526	47	5.29620916480633	2.2181142974141	22.6459524488407	8.43554849527247	23.7860380696112	0.647167490352476	111	2.65138208986022	242	0
48	P4-Cz	95174	95249	75	2.82245801210502	1.00018925467379	9.77078213645133	7.96325477850241	9.77078213645133	0.362076445937485	232	0.600994809151791	300	0
48	P4-Cz	599955	600002	47	10.7502699594867	0.964094118563122	48.0066917441351	124.33685377062	48.0066917441351	1.57502372756184	83	1.98632435175267	82	0
49	T3-F3	32534	32605	71	2.80366183264398	1.10065806531245	9.37142975448079	6.48853151357613	10.1040134365639	0.322933354613936	83	0.371140225141117	82	1
49	T3-F3	36845	36924	79	4.36743763490268	1.32784584302318	19.878873084456	10.818277259933	19.878873084456	1.09969188041723	83	0.850393219856715	82	1
49	T3-F3	62129	62250	121	4.59552799245345	1.06936150797721	20.5135348538956	18.4680795566911	20.5135348538956	0.306718068954082	219	0.339230965660422	300	0
49	T3-F3	64548	64627	79	3.45537005436661	1.03470133837527	12.2996330704417	11.1521630047071	12.2996330704417	0.197029296466532	NaN	3.40211563400638	300	1
49	T3-F3	95152	95246	94	4.42601512846977	2.02858813948847	19.0219621998008	4.76034056446102	45.009353640968	0.846047243892837	70	0.97402971300609	82	0
49	T3-F3	144163	144241	78	4.32505536836273	1.36398750724554	18.1275333572218	14.7678441699365	18.1275333572218	0.565377429417816	87	0.405030241374322	86	1
49	T3-F3	144461	144548	87	3.84210439396645	1.40333478704663	14.19612808775	11.5230939259985	18.1275333572218	0.291710038660658	NaN	3.95430876095806	300	1
49	T3-F3	177671	177743	72	3.17273439281652	1.13427433570445	13.1785042774678	7.8240428683899	13.1785042774678	0.308799765229979	NaN	3.5863421087717	300	1
49	T3-F3	273710	273798	88	5.33093984794207	1.06649784072857	22.8517157922214	24.9854746014586	22.8517157922214	0.276004408058937	237	0.307203326802301	300	1
49	T3-F3	321057	321171	114	6.1907089636606	1.2680404292683	30.7329807329786	23.8349680483076	30.7329807329786	1.36382677247002	97	3.30857933500263	96	1
49	T3-F3	337264	337345	81	4.54779632652583	1.16829374384159	18.2921036074503	15.1529751466962	18.2921036074503	0.586931958011217	83	0.371051802863677	82	1
49	T3-F3	374363	374436	73	2.5532079016838	1.06418642296052	8.95748310785474	5.75621400718687	8.95748310785474	0.250766063428936	212	0.291064775526425	300	1
49	T3-F3	388947	389047	100	4.62992465014219	1.10665315422496	19.645852430095	17.5034957671027	19.645852430095	0.236289312036662	219	0.299188795335599	300	1
49	T3-F3	408284	408393	109	4.0026192220872	1.04583414336643	17.581855572814	14.647480249575	17.581855572814	0.582617450516351	83	0.267568067085413	82	1
49	T3-F3	411054	411180	126	4.50541922710205	1.09016169601181	18.9644948286612	17.0800280292156	18.9644948286612	0.730539597401709	95	0.422967778762269	94	1
49	T3-F3	434940	435017	77	2.95467534290655	1.03500912522105	10.610995936464	8.14950401981678	10.610995936464	1.17905098201384	83	0.341024124864548	82	1
49	T3-F3	479198	479281	83	4.23992547172884	1.26998432801417	17.3127811037377	15.6173496148012	17.3127811037377	0.151913526483805	NaN	3.59337225283145	300	1
49	T3-F3	479475	479557	82	3.50401097437807	1.35971116393377	13.3941968442612	10.7538935835272	17.3127811037377	0.204686292667483	NaN	4.74882389981509	300	1
49	T3-F3	481568	481652	84	6.07429883388004	2.00866963373201	23.021622037585	13.1664654836647	33.2374126284	1.181541064455	83	3.63999983903346	82	0
49	T3-F3	481833	481889	56	6.78560425198866	2.05882952488785	33.2374126284	16.5081549754647	33.2374126284	0.871787693034122	149	2.93161525796865	265	0
49	T3-F3	506866	506984	118	4.80840095285109	1.09352308597261	25.6226144036352	19.3350561168168	25.6226144036352	0.339432615920585	NaN	4.61786473012772	300	0
49	T3-F3	509235	509385	150	13.7854178790278	2.40500241674144	86.0250454212394	37.4447553572731	86.0250454212394	4.03067558106438	158	5.23720795465685	157	0
49	T3-F3	509496	509542	46	5.93637454803871	4.3908167867817	22.3724087710478	6.60658939985776	86.0250454212394	1.26428095461438	147	1.44451955441025	146	0
49	T3-F3	548127	548216	89	3.50101306199056	1.10253223822768	13.0657611826759	10.083350597191	13.0657611826759	0.437398829445653	83	0.372525025794805	82	1
49	T3-F3	555937	556016	79	2.62591609549672	1.00906490716621	8.55282870994706	6.77210190950113	8.55282870994706	0.359292807418485	83	0.327671664362551	82	1
50	F3-Cz	20075	20141	66	3.34018340855552	1.19307514015092	12.7002470496727	7.83799597128133	12.7002470496727	0.496356088595152	83	0.345199374359	82	1
50	F3-Cz	27063	27139	76	4.11071768001567	1.05461758035463	18.5353913683492	15.1930612401613	18.5353913683492	0.883323108809986	83	2.33165387763537	82	1
50	F3-Cz	32532	32615	83	3.28544126512916	1.06873075135143	11.3070279609051	9.45041332882569	11.3070279609051	0.341326797667771	83	0.442296512770971	82	1
50	F3-Cz	36612	36710	98	4.59671254562974	1.3564749140857	19.4859557507345	11.4834176163403	19.4859557507345	0.46673615753829	83	0.30061998639832	82	0
50	F3-Cz	62122	62229	107	5.52508967949752	1.12416890132263	25.3062737510078	24.1554720700848	25.3062737510078	0.697012319085653	90	0.478089274943118	89	0
50	F3-Cz	64532	64632	100	2.84820189888219	1.07851731739322	11.4279468278409	6.97408598616965	11.4279468278409	0.146898838900269	NaN	3.2112595136814	300	1
50	F3-Cz	99625	99699	74	3.62982326225017	1.0727214167674	14.3261168958937	11.4497777414731	14.3261168958937	0.526460309458221	83	0.448699980680567	82	1
50	F3-Cz	144134	144238	104	2.90408978794065	1.4819951349266	11.6082243246813	6.78243544812528	21.4198645956778	0.309958456247329	86	1.87192325698827	85	1
50	F3-Cz	144455	144551	96	4.57052486651863	1.26645707702355	21.4198645956778	17.0461348913867	21.4198645956778	0.866849241232091	71	0.951982011575078	82	1
50	F3-Cz	177673	177744	71	3.75966881448984	1.10717161921475	14.151987966612	11.5310615585727	14.151987966612	0.205272442884997	NaN	4.98991067788825	300	1
50	F3-Cz	248491	248595	104	3.01087659064891	1.02633257857588	11.4342336627852	8.60616524370281	11.4342336627852	0.22431859453069	NaN	3.32176556465583	300	1
50	F3-Cz	259350	259428	78	3.12131188815341	1.11202191395198	11.3603391573665	7.87857441723411	11.3603391573665	0.156110568524509	NaN	5.0126781973249	300	1
50	F3-Cz	273712	273795	83	3.90540362345242	1.05099706618923	13.9464604016305	13.8079384444891	13.9464604016305	0.201352844880941	NaN	3.63250660118638	300	1
50	F3-Cz	332058	332139	81	3.45743598327276	1.06515542344025	11.5345051103306	10.5361593229371	11.5345051103306	0.11500486512311	NaN	4.70930411090193	300	1
50	F3-Cz	337256	337342	86	5.27276226334884	1.37788013251433	21.7940254713838	14.6437904167426	21.7940254713838	0.350757007643241	214	0.421461140503816	300	1
50	F3-Cz	388944	389032	88	4.90144032753201	1.12164019195947	20.727953255432	19.0959079826048	20.727953255432	0.197031338558655	NaN	4.37305146452711	300	1
50	F3-Cz	479195	479278	83	4.24488795686379	1.53071630649366	16.9737087149265	16.2473407327019	22.9701046178073	0.24163296056322	NaN	4.29649014759591	300	1
50	F3-Cz	479471	479575	104	4.96131671834906	1.38101424332243	22.9701046178073	20.4979687459749	22.9701046178073	0.654570688164693	83	0.48707998068229	82	1
50	F3-Cz	481548	481644	96	8.57344242974987	1.0543783168047	41.0735556829331	66.1176698616987	41.0735556829331	0.293106556709794	NaN	9.34982012376261	300	0
50	F3-Cz	500346	500417	71	2.76343678958592	1.07776541811272	9.79072829525157	6.57431609490341	9.79072829525157	0.15094069571069	217	0.190441078908166	300	1
50	F3-Cz	548133	548214	81	4.32192689452574	1.07921169866508	18.1685833392393	16.0376800142015	18.1685833392393	0.307382996612483	NaN	3.48680079029613	300	1
50	F3-Cz	599944	600002	58	9.75730878095798	1.0435845375432	48.2815645304634	87.418797164466	48.2815645304634	0.627366795341067	136	0.666751176201418	143	0
51	T4-F4	37036	37103	67	4.47692281210681	1.51465774421152	21.4568967631891	9.402271103247	21.4568967631891	0.471651626947457	160	1.93932110034821	229	1
51	T4-F4	37184	37231	47	2.9836161200016	1.69210622960924	10.9511330042853	3.94143752162917	21.4568967631891	0.183454126827769	80	0.260923543785211	82	0
51	T4-F4	95978	96096	118	12.0630015095109	1.38121274829286	71.434903550239	76.2762982205441	71.434903550239	2.24377035851702	77	2.86677990809495	110	0
51	T4-F4	481797	481866	69	6.02888711446389	1.26335911252297	25.0530751393033	22.7730222179741	25.0530751393033	0.999625478606612	160	2.75587220273786	237	0
51	T4-F4	509182	509231	49	4.38717213880751	2.17592176913316	20.0426085702771	4.96262360053524	22.659134823554	0.643615635707923	98	0.84957976724738	99	0
51	T4-F4	509462	509530	68	5.35681511401739	2.07412236729345	22.0388823179257	7.32256848602808	22.659134823554	0.591516366458499	160	3.07792424686357	248	0
51	T4-F4	510635	510680	45	4.53240120831592	1.55503479265969	20.8641495620585	8.49525603425217	20.8641495620585	0.803649482825148	221	2.27673550759963	248	1
52	F4-Cz	62164	62232	68	3.03108892845205	0.956447791815967	11.4811968035513	10.0432626117354	11.4811968035513	0.266460259358906	NaN	3.00497488279626	300	0
52	F4-Cz	481570	481648	78	3.95452180993119	0.973837857897798	18.1906406667325	16.489771694988	18.1906406667325	0.864249622072146	83	2.1286793753401	82	0
52	F4-Cz	599943	600002	59	9.27634476151441	0.880067828064458	45.4894376266961	111.101896395321	45.4894376266961	0.888395488321045	83	0.873027942544266	82	0
