nChannel	strChannelName	indStart	indStop	indDuration	Event_RMS	Window_RMS	EventPeak2Peak	SNR	Amplpp	PowerTrough	Ftrough	PowmaxFR	fmax_FR	EvPassRejection
2	Fp1-F7	542582	542631	49	4.43064854569786	2.21218352340227	16.8765728251557	4.01136606960232	16.8765728251557	0.915262796769761	179	0.915475562540286	180	1
7	F8-T4	288032	288084	52	5.06200854616807	2.16955743169665	18.0635988889843	5.44381610261348	18.0635988889843	0.667918564738871	153	2.78826942444426	152	1
7	F8-T4	361643	361700	57	4.83412851699714	2.11705230392592	15.2910347160212	5.21402619265564	15.2910347160212	0.594176110084287	NaN	2.61163710012471	300	1
8	T4-T6	127286	127363	77	4.77015778428531	1.99783855072806	16.705424515815	5.70091690596459	17.5735278192564	0.712520989117627	112	2.88864436498941	111	1
8	T4-T6	214717	214784	67	4.83989494845745	2.24560590928668	16.513522039432	4.64520393798244	16.513522039432	0.862323461581317	152	2.85270590025977	151	1
9	T6-O2	236316	236359	43	3.01557842992998	2.03307834038062	9.39583441655849	2.20005242240993	15.1068145878941	0.424199159514698	141	1.66338693688328	199	0
9	T6-O2	454839	454901	62	3.96199979932535	1.89327703996003	14.6984138236497	4.37925830301553	14.7024479110436	0.765733869210946	114	0.950260509529415	142	1
13	P3-O1	204595	204646	51	4.08218965316495	1.74594179126427	15.0405512124367	5.4667200494328	15.0405512124367	1.01175225221538	178	1.6893695916892	177	1
15	F4-C4	14974	15052	78	5.73269020958304	1.69015223092777	24.512385056264	11.504435164808	24.512385056264	1.04555776854747	119	1.22419602200609	136	1
15	F4-C4	545449	545501	52	4.63455661358456	1.58485362079372	15.1309619288675	8.55141671924159	15.1309619288675	0.425376000145514	143	0.456350493082371	142	1
16	C4-P4	75285	75333	48	3.47720705638531	1.72839557478742	12.0866660313738	4.04738775213775	12.5107253670537	0.465729689814363	175	1.99570002001812	174	1
16	C4-P4	254944	255020	76	4.34451497852889	1.59118596555573	18.2470432186949	7.45488105494951	18.2470432186949	0.675505808002928	139	2.19447508665169	138	1
16	C4-P4	264157	264220	63	3.73028918936926	1.65955738094915	12.7117293309969	5.05243176475842	12.7117293309969	0.396255289013575	130	0.48820192992039	129	1
17	P4-O2	5910	5963	53	4.89428670090917	1.93999852896335	17.8542117424975	6.36467176050176	17.8914154080028	1.92924161634272	103	2.33729541378307	102	1
17	P4-O2	85938	86017	79	6.33149530384893	1.90828491261876	23.0719312704107	11.0084492555641	23.0719312704107	0.637112323731986	147	3.28682542269227	146	1
17	P4-O2	97591	97681	90	4.14086636567472	1.90014450628771	15.4462298101457	4.74907654509795	15.4462298101457	0.615077308566727	138	2.13945070200578	137	1
17	P4-O2	123407	123492	85	4.46036147326592	1.92220809598034	17.1794072112222	5.38442469768345	17.1794072112222	1.55296679775367	83	2.66356069567972	82	1
17	P4-O2	150834	150918	84	3.80595592509621	2.05930775784889	12.8378209207617	3.41574151437435	13.614234884876	0.500774455459364	148	2.09178447688124	147	0
17	P4-O2	253490	253556	66	4.17417467674457	1.91265418870161	13.5811814194864	4.76286559596865	13.5811814194864	0.526335448902345	146	0.544183157072381	145	1
17	P4-O2	254994	255049	55	4.60337300121114	1.95608063096396	15.081992326695	5.53832996842979	15.1577900892647	0.391750941847251	145	2.79667519517942	147	1
17	P4-O2	258600	258693	93	5.43447354889163	2.05163134833116	19.9579948389291	7.01643176190006	19.9579948389291	0.436227899009647	148	2.81668481524832	147	1
17	P4-O2	288013	288084	71	5.00866874706906	2.07296914052331	18.8452186036642	5.83793084889996	18.8452186036642	2.18425473108309	83	2.66757577823618	82	1
17	P4-O2	292656	292722	66	6.84021391006892	1.77444528702459	24.2930537605512	14.8598402609195	24.2930537605512	1.02303679009704	120	3.62534052553133	119	1
17	P4-O2	294369	294429	60	5.54823723509379	1.96921809366691	17.6435915870569	7.93820682943687	17.6435915870569	0.770940475214821	143	0.816769983898913	150	1
17	P4-O2	302455	302527	72	4.41999152530026	2.01033056658427	17.1594817665023	4.8340141932083	17.1594817665023	0.633931903953352	141	2.5717592317134	140	1
17	P4-O2	382999	383107	108	5.12716084612295	1.94495656992146	20.2527720444664	6.94918810889008	20.2527720444664	1.57579959563957	83	2.79729823339089	82	1
17	P4-O2	541974	542053	79	5.13061030071377	2.09327109452253	18.1637345686913	6.00740766950942	18.1637345686913	0.513817295281214	145	2.86963270973221	144	1
17	P4-O2	545461	545528	67	4.56287409224362	2.14211901287205	19.6616721619474	4.53721937814619	19.6616721619474	2.28290025356517	87	2.66717228825965	86	1
17	P4-O2	554498	554560	62	4.38389831625446	2.06599710600931	16.9581052355211	4.50258092083847	17.0145261853228	0.545186840958098	143	2.34379729592695	142	1
17	P4-O2	562521	562582	61	5.99807465299058	1.90025649725128	19.1620457116161	9.96320993094386	19.1620457116161	3.21561755014503	83	0.97576425624461	82	1
19	Cz-Pz	511164	511207	43	3.14432595450023	1.87646397324492	9.85154520397503	2.80785489028788	12.0795094169533	0.467761484567121	185	1.69683509640716	192	0
20	Fp1-Fz	456440	456492	52	3.26961403898199	1.9564461033211	10.5247081936724	2.79291167990881	11.6268022823398	0.496202734477617	164	1.86520339761717	163	0
23	F3-Fz	538206	538249	43	3.08325609154522	1.70971513056253	9.54303723026882	3.25215836966337	11.7730740507357	0.859903519542638	191	1.61959004428531	190	0
24	F8-F4	14971	15046	75	5.35926658299971	1.79874549524439	22.003791899893	8.87710347645929	22.003791899893	1.3041148133687	110	1.23710127978838	109	1
25	F4-Fz	14973	15054	81	5.15783818670589	1.83766316584219	18.9729325277359	7.87777559786087	18.9729325277359	0.945279519960972	115	1.08536966213994	132	1
26	T3-C3	552879	552929	50	3.69068370986868	1.88395428950211	12.5817828513532	3.83771688836654	14.2353596070241	1.70048748007263	83	0.894864293956475	82	0
28	T4-C4	70481	70568	87	4.92534147206502	2.29744877288207	17.2642780945694	4.59601055751428	18.4657193625377	0.521076669558916	157	2.8938537194373	156	1
28	T4-C4	78903	78975	72	5.16598103579574	2.16335312338686	21.5186012087255	5.70230949592373	21.5186012087255	0.566235740876017	166	2.94363405272066	165	1
28	T4-C4	117818	117865	47	4.00534689157913	2.13627426127949	13.0181266342148	3.51533124413654	16.3595995978545	0.935972538573252	161	2.10626052715355	160	0
28	T4-C4	121669	121723	54	6.0065209401021	2.23831996149118	21.2193841413776	7.20114664997639	21.9154997493478	1.25727707730835	157	1.23499747536347	156	1
28	T4-C4	148176	148247	71	4.75161872419066	2.12001894859261	16.4645666637083	5.02346851695533	16.4645666637083	1.38113877658821	90	2.47720411135304	89	1
28	T4-C4	157970	158025	55	4.83682185745934	1.96883296844715	17.2163549553139	6.0353496942376	17.2163549553139	0.961547895008691	157	2.73113612376919	156	1
28	T4-C4	216269	216341	72	5.02314751379251	2.13949194320347	18.0227851882799	5.51227091063872	18.0227851882799	2.28718049666067	90	0.435797242797163	89	1
28	T4-C4	294360	294423	63	4.81213163734365	2.04098161411764	16.5758475933889	5.55900178214374	16.5758475933889	0.71982707008763	151	2.40499173478932	150	1
28	T4-C4	331100	331167	67	4.90293134853678	1.98554618106521	15.9817533184285	6.09749761718047	16.5749576010768	0.630193699216786	102	0.647138360144417	111	1
28	T4-C4	333328	333393	65	4.64870882465667	2.07580911919453	16.0877484462081	5.01521849405901	16.0877484462081	0.618229447175284	149	2.7019169319384	148	1
28	T4-C4	336865	336953	88	6.0693202321021	1.9828800426785	23.2951244871753	9.36887019033613	23.2951244871753	0.888859882332331	153	0.882595298319474	152	1
28	T4-C4	360633	360679	46	4.80323859828292	2.12280303964451	16.7687317628883	5.11975194177051	16.7687317628883	1.66287519513564	61	2.54574162720781	97	1
28	T4-C4	453817	453873	56	4.63310662074137	2.4800207406744	17.2918827385094	3.49006860061604	20.2813903408278	1.94452834395418	88	2.33277315528895	87	0
31	P3-Pz	396007	396062	55	3.39872963498352	1.76503193574954	10.7810068718968	3.70790075337466	12.003772563195	0.796311142878966	147	0.89314654950443	175	0
32	T6-P4	78892	78972	80	4.62538238420288	1.75211956454049	17.1773325494597	6.96895733866804	17.1773325494597	1.65103630634105	61	2.57772168264002	82	1
32	T6-P4	82864	82970	106	4.92828778235877	1.76494383057351	18.1125960199796	7.79705042984085	18.1125960199796	0.559768956712089	146	2.95286847461414	148	1
32	T6-P4	85937	86043	106	6.44127250939213	1.77605937935447	24.1051001045596	13.1531079115355	24.1051001045596	0.591011347282218	143	3.05366300957773	142	1
32	T6-P4	97610	97667	57	3.84298280295082	1.69358935169694	11.8947815097522	5.1489734590077	13.2410456038216	0.523249121033303	130	0.671100986410022	136	1
32	T6-P4	107286	107339	53	5.11103629079098	1.98577729854187	18.6746845080307	6.62455707651302	18.6746845080307	2.18483582978003	83	2.62474013970034	82	1
32	T6-P4	116792	116852	60	5.43042899138621	2.00858267946188	19.6055744371329	7.30951988228193	23.0374194503655	2.59091882668638	83	3.05985942800158	82	1
32	T6-P4	123408	123493	85	5.03367196702355	1.85354128671122	20.0790516341212	7.37505548430243	20.0790516341212	0.613040966650064	140	2.96126155215267	139	1
32	T6-P4	150840	150928	88	4.65954012619247	1.8359408067878	16.1207447843172	6.44122933913562	16.1207447843172	0.683032479878405	144	2.7347981803151	143	1
32	T6-P4	157965	158040	75	6.02112731301631	1.83481860111902	24.6109205019359	10.7688505977562	24.6109205019359	0.5649845355992	153	3.20350084495552	154	1
32	T6-P4	166809	166876	67	4.59446571100801	1.67991786517503	15.6201889185911	7.4798679708265	15.6201889185911	0.550901464626053	154	2.46365090313834	153	1
32	T6-P4	216290	216377	87	6.19441655018106	1.93038511003514	27.5489605283774	10.2970517457864	27.5489605283774	0.961184940548815	152	3.3189234583816	151	1
32	T6-P4	219572	219669	97	4.02630101644025	2.00577106723502	13.901361549963	4.02948697774121	17.6725497756786	1.17764539016014	92	0.742033899403978	91	1
32	T6-P4	239007	239084	77	5.2692505143834	2.02918965301635	17.9194189043565	6.74298843612904	17.9216291497235	1.2313406489189	104	2.16213200210671	103	1
32	T6-P4	253495	253546	51	4.10361414612355	1.74345921161149	15.2403194114771	5.53999603089899	15.3433366629609	0.536856452294697	138	2.20131129702075	142	1
32	T6-P4	254960	255056	96	5.74804942834639	1.74541053418198	20.6211144023904	10.845405700378	20.6211144023904	0.444160031401087	148	3.33974986101075	147	1
32	T6-P4	258593	258698	105	5.301766527734	1.83907584765444	20.0364762900948	8.31078248934191	20.0364762900948	1.57439603076634	91	0.594116206347911	90	1
32	T6-P4	260780	260837	57	3.85771038286586	1.86845344058247	12.4362811427058	4.26279727335043	15.5167949180718	0.446614621185186	144	2.39895506026442	152	1
32	T6-P4	273702	273776	74	4.55315517284025	1.71669394941795	15.7610198554914	7.03459582542628	15.7610198554914	0.506259091147344	130	0.691708138318934	135	1
32	T6-P4	294372	294462	90	5.25189820400209	1.84248909587249	22.1721122205745	8.1249883465835	22.1721122205745	0.825662920801531	143	2.92056736445038	142	1
32	T6-P4	336873	336955	82	4.58738271214844	1.71687531561544	16.8243959282608	7.13924743147394	16.8243959282608	0.664380135378441	151	2.62312889695562	150	1
32	T6-P4	360639	360710	71	4.04016964748464	1.96779160086565	15.4091777929766	4.32462071235429	15.4091777929766	1.74115785030749	92	2.09463941055048	91	1
32	T6-P4	361692	361760	68	4.04654472712211	1.85542946274698	13.3629983414556	4.89549048771142	18.3913319012006	1.57823866338585	61	1.98705859601567	87	1
32	T6-P4	369124	369193	69	5.80928481793684	1.81672332780804	24.4745969120521	10.2251044624738	24.4745969120521	1.75392523805514	94	2.8058439698506	93	1
32	T6-P4	382994	383103	109	5.78079166737547	1.88990238215213	21.1641266960708	9.35612233116385	21.1641266960708	0.494006794400847	136	3.43789770518057	135	1
32	T6-P4	449368	449449	81	4.82424497269178	2.09606688689216	16.3908313725581	5.297225140915	17.1185302889567	1.99656964900085	83	2.32506147130964	82	1
32	T6-P4	452809	452875	66	4.32457558058926	2.02053299112049	14.9322169072846	4.5809451461639	15.5231964534354	1.76677686215087	89	2.29848540576694	88	1
32	T6-P4	454827	454899	72	5.11992620829719	2.01453870937762	21.4709469311326	6.45916189219344	22.1632243384202	0.617248060512812	148	2.90686172433678	147	1
32	T6-P4	545433	545516	83	5.27837554101209	1.95126498443179	18.9626741540426	7.31758994260769	19.0484035962906	2.56996280111908	88	3.01636993570434	87	1
32	T6-P4	552909	552977	68	4.402726594223	2.1627289286484	15.6431778084468	4.14418615140578	21.5431821363448	1.57687443685541	93	1.99070920650209	92	1
32	T6-P4	562509	562576	67	5.12320026475692	1.76520019377804	19.4232179212789	8.42354174505167	19.4232179212789	2.40731402382919	83	2.77242266399807	82	1
32	T6-P4	587770	587877	107	5.67002533336911	1.64549033912149	25.9169950978121	11.8735155382798	25.9169950978121	1.394942679662	90	2.92968731404939	89	1
32	T6-P4	598825	598881	56	4.35508238891014	1.85005271995895	14.7781396725777	5.54146432708181	16.9230211375811	1.81676563815811	83	0.572760362715481	82	1
33	P4-Pz	254963	255040	77	4.03296955311075	1.69776884148442	13.1027466322508	5.64277545894581	13.1027466322508	1.62000353886066	89	2.21233082412797	88	1
34	Pz-O1	117833	117880	47	2.98960636327028	2.04645430999894	9.39561380619041	2.13414494807014	14.4029430870394	0.752536724847346	175	1.43154895059599	174	0
34	Pz-O1	340443	340511	68	3.63574572877235	1.7558152877922	12.8883557320466	4.287748987048	12.8883557320466	0.612464417430546	141	1.87184437422606	140	1
35	Pz-O2	294368	294427	59	4.39933600381846	2.14584937291977	15.1068190824675	4.20315880284174	15.4968833946776	0.56596890162777	147	2.25917125986612	146	1
35	Pz-O2	488729	488770	41	3.53518527471826	2.15089163886882	10.8221509777053	2.70139005346211	15.6168285061362	0.781924897963481	168	1.95083025017157	186	0
39	F8-C4	70491	70561	70	4.39549233961974	1.91114877462414	15.4702031075695	5.28963934700768	15.4702031075695	0.378170936571428	153	2.34893594106647	152	1
39	F8-C4	73037	73105	68	4.81966393759386	1.74544998343644	16.3004939429225	7.62462866114805	16.3004939429225	0.576580766790403	151	0.597448806517013	150	1
39	F8-C4	101111	101173	62	4.27672394008459	1.71244774153889	14.3256391333349	6.23717287168446	14.3256391333349	0.377434407534128	150	2.33991699137969	149	1
39	F8-C4	123399	123467	68	4.08128894868187	1.93026785306201	13.0052174268666	4.47053532124755	13.0052174268666	2.03075118334426	83	2.29241926455577	82	1
39	F8-C4	150839	150895	56	3.91589859020299	1.79919745018416	12.0242552759727	4.73702000556285	12.6524312715669	0.308883711595226	142	2.37141134379435	141	1
39	F8-C4	214732	214792	60	4.47907030872869	1.91239879020671	14.7525000363703	5.48553308551912	15.8428451527451	0.432379977291712	149	2.56372319686545	148	1
39	F8-C4	216288	216339	51	5.52422426595394	1.94171249810889	19.0008074166549	8.09417799364369	19.0008074166549	2.53092368763451	91	3.15449515765145	90	1
39	F8-C4	254965	255036	71	4.02380720293969	1.80134482504878	12.5747225856994	4.98977100420807	12.5747225856994	1.62752400061052	95	2.20809633641373	94	1
39	F8-C4	258612	258692	80	5.09643630834352	1.74853379515185	18.2777611309082	8.49542560052684	18.2777611309082	0.578887787178377	148	2.52454357261013	147	1
39	F8-C4	288017	288079	62	3.96287032561363	1.83553631359191	12.3799068069548	4.66115731995904	12.5265653490704	1.43031053628049	83	2.15427919599046	82	1
39	F8-C4	383002	383081	79	3.9632739809946	1.87800429107179	13.2679144418627	4.45363920896195	14.2481135867035	0.575833846697027	131	2.1918895156493	130	1
39	F8-C4	461835	461903	68	4.30460210846578	1.66280973287824	15.6807155015513	6.70163718795373	15.6807155015513	1.67762913195942	83	2.01013324918246	82	1
39	F8-C4	543882	543959	77	4.46957586390907	1.75553198543617	15.7046235432913	6.48209113941717	15.7046235432913	0.852333816725037	151	0.963148470214285	150	1
39	F8-C4	545434	545509	75	5.53371555338083	1.9135196966319	18.5662623169273	8.36310961757589	18.5662623169273	0.437020890320114	143	3.11561636447231	142	1
41	T5-C3	566333	566385	52	3.65389543555529	2.07003983036226	12.6733982075394	3.11569420014985	19.6315119838337	0.719128100829518	161	2.11630630619342	168	0
43	T6-C4	70484	70558	74	6.35182932761217	1.82095060411141	23.7998871912808	12.1674987457441	23.7998871912808	2.41390217066995	61	3.03186548819506	82	1
43	T6-C4	71759	71853	94	5.08859244214969	1.79769492568504	21.5810949540644	8.01241346293588	21.5810949540644	2.31248360560407	61	2.80627392537272	82	1
43	T6-C4	73070	73135	65	4.7907459238128	1.85477800316705	18.0185422835694	6.67148331280324	20.5762219222444	1.22702541417048	91	2.32328059902593	90	1
43	T6-C4	82889	82967	78	4.59623696599231	1.78180922659828	16.9290421963179	6.65399416448063	16.9290421963179	0.538468798094619	136	0.714223400697615	144	1
43	T6-C4	85937	86004	67	5.28368145196506	1.80640418099972	23.1976095203991	8.55546055911151	23.1976095203991	0.766539244304342	147	2.52589200648257	146	1
43	T6-C4	121668	121723	55	4.60845394286423	1.92016645204247	15.9574177824201	5.76013613390821	17.2447275443698	0.678386314929196	157	2.47342542456072	156	1
43	T6-C4	150837	150917	80	4.58461391642122	1.77592300465924	16.7156660017008	6.66434191909863	16.7156660017008	0.93581664303811	149	1.01360000020543	148	1
43	T6-C4	157964	158026	62	5.85338721925558	1.7182854478612	23.1210771890658	11.6044319407516	23.1210771890658	0.823201256117214	156	3.18711399752001	155	1
43	T6-C4	163493	163559	66	4.85035185823458	1.75131588756059	18.3666889155146	7.67039120445344	18.3666889155146	1.34815098584629	83	0.712128619608093	82	1
43	T6-C4	220413	220480	67	4.86616021305808	2.01044721665415	16.3645016491702	5.85851378609371	16.953318619922	0.563694917858628	155	2.58495268385283	154	1
43	T6-C4	239010	239094	84	6.08550354194024	1.87999914485776	21.761036782576	10.4779841130564	21.761036782576	2.2354039727127	83	2.44905913626044	82	1
43	T6-C4	244328	244377	49	3.49686004130952	1.8603394955706	11.1477167353983	3.5332314545502	16.7621701709489	0.58124971200272	153	1.88370883491732	152	0
43	T6-C4	253490	253546	56	4.41302551723447	1.8386338566887	15.940303693226	5.76079434196	16.7577004828206	0.502823915899025	135	2.49002075508653	144	1
43	T6-C4	258587	258687	100	4.95133611462435	1.74374597658292	21.0168902068984	8.06266063876384	21.0168902068984	2.21948261760238	61	2.42885366781546	82	1
43	T6-C4	264164	264228	64	5.27362505734907	1.85723710992167	19.51809880967	8.06276111756976	20.6439011836845	0.790430966176571	133	2.84866034830968	132	1
43	T6-C4	292650	292709	59	4.42093332263707	1.72494351827753	14.4938463341316	6.56868100254144	14.4938463341316	1.53001658204537	83	0.731456289469888	82	1
43	T6-C4	294338	294403	65	4.26625634214098	1.83272880445093	13.6363246495662	5.41872963510151	15.5677522224845	1.81925237398947	61	2.51527086738754	82	1
43	T6-C4	303458	303532	74	4.21795474439238	1.7584009833091	16.5510079940437	5.75397533148127	16.5510079940437	0.590802704970896	147	2.46458420685416	146	1
43	T6-C4	344526	344591	65	6.89751998483511	1.89256562099791	29.1357559650079	13.2826289702125	29.1357559650079	0.709286806082367	152	0.751816936148196	151	1
43	T6-C4	361700	361770	70	4.83144803663142	1.96401175054944	17.9925670751352	6.05154771986392	21.7568125244404	0.62108653764732	150	2.72231417969879	149	1
43	T6-C4	369158	369220	62	5.51829667817364	1.86656858594052	19.1628473508953	8.74021641549518	19.1628473508953	0.928518845353927	101	4.58267502654224	100	1
43	T6-C4	383004	383106	102	5.01611632689626	1.88703707222568	19.201418053376	7.06601141087537	19.201418053376	0.52054339923185	138	2.7505899896209	137	1
43	T6-C4	449368	449451	83	4.28123262181478	2.03387181031372	15.2882654384351	4.43088519939592	18.6820720191043	1.5574535691195	61	1.68889584853123	82	1
43	T6-C4	454808	454893	85	4.45948752881754	2.06610096239725	17.0331338941369	4.65872234230823	21.0822066520333	0.533340852487348	148	2.53212879731961	147	1
43	T6-C4	557652	557725	73	6.69708678278727	1.82884185097161	29.868250151408	13.4097150799027	29.868250151408	0.927111739028022	125	0.733398297126741	124	1
43	T6-C4	567953	568009	56	4.41536980077147	1.7437571112217	15.7214751720918	6.41153743653297	15.7214751720918	2.09020560864057	83	0.7502878530452	82	1
44	C4-Pz	214772	214829	57	3.24541177491144	1.82448042081641	11.7994980391174	3.1641801428614	13.431761818769	0.73645060749972	145	0.925085443489556	154	0
44	C4-Pz	229274	229319	45	3.01863045098898	1.79031665256483	10.6363037125819	2.84289091084677	13.3636974218576	0.132410242058674	166	1.59190439069653	200	0
44	C4-Pz	263924	263969	45	2.5967578991556	1.91083943352892	7.95931930806124	1.84677732044339	12.7031719347476	0.615657260397183	190	1.06836482311549	189	0
44	C4-Pz	292658	292715	57	3.55501915013094	1.81840969280314	11.7511258486749	3.82208563824774	12.6737295888056	0.681314816551221	112	0.758687280761831	120	0
44	C4-Pz	299102	299150	48	3.1942533256377	1.73319865416224	11.703626982194	3.3965813839544	13.0617428109923	0.53943259294057	173	1.65436323072914	172	0
44	C4-Pz	379610	379661	51	3.53328661696051	1.78769357529337	13.9922093336351	3.9063538287485	13.9922093336351	0.74863433084451	177	1.64056258985268	176	0
44	C4-Pz	399843	399885	42	2.75267992188109	1.8585790672054	9.02827822710041	2.19355913742931	11.8564203524478	0.254087246074564	135	1.49183463589676	201	0
44	C4-Pz	542755	542808	53	3.39817644772955	1.88157880443472	13.044189809228	3.26172262912155	14.1429596658825	0.595017169402729	151	0.608818758930214	159	0
45	T3-P3	394512	394559	47	2.86077409886955	1.7125195582575	9.40591589819287	2.79059010422614	11.8702275334469	0.539399375676585	184	1.44715783578488	185	0
45	T3-P3	405645	405695	50	2.99842677210866	1.73229218472646	10.2136284779244	2.99601926554925	11.9179146181886	0.298516010869757	149	1.69577382443229	203	0
45	T3-P3	595057	595117	60	3.96323050210453	1.64036495749499	15.1085533312642	5.83737639132916	15.1085533312642	0.708335043206659	158	1.81793371968611	157	1
47	T4-P4	11507	11572	65	4.60852923243755	2.00716614385419	14.512832410691	5.27178933941894	15.2831728183633	0.565784578299579	125	2.60500035097033	124	1
47	T4-P4	70509	70567	58	6.56406028678975	2.35151456777657	22.5737083866571	7.79201491376773	22.5737083866571	0.746002538992058	154	3.71938921649259	153	1
47	T4-P4	78902	78992	90	6.162653387596	2.11118136290248	28.853474304283	8.52087898011908	28.853474304283	0.96864161327123	161	3.32768767641222	160	1
47	T4-P4	85942	86015	73	7.14505412685599	1.99815768477501	24.4870359462171	12.7864955245623	24.4870359462171	0.637158394409447	155	3.98661743077671	154	1
47	T4-P4	104447	104525	78	6.4634535659104	2.16520429830218	25.5361974657508	8.91110385366198	25.5361974657508	0.771010029686502	136	0.968493325945231	144	1
47	T4-P4	115916	115991	75	6.13983333766098	1.98909676107259	22.2243659248763	9.52799114413453	22.2243659248763	1.06684104627578	151	3.50578867884781	150	1
47	T4-P4	157970	158028	58	5.67427891922784	2.03236137424243	19.5665052206708	7.79506057969054	19.5665052206708	0.788750811302632	153	3.31019433038207	152	1
47	T4-P4	213627	213696	69	5.50081380277084	2.05303873207245	22.5594487352985	7.1789281054315	22.5594487352985	1.31166695843911	94	1.20181186958368	93	1
47	T4-P4	214698	214800	102	5.43760772036994	2.17067804768066	23.0444916438205	6.27516166161785	23.0444916438205	0.554593128098539	149	3.2584863637143	148	1
47	T4-P4	216302	216373	71	6.02868521545205	2.32350249014431	20.0598862611745	6.73222979376395	20.0598862611745	0.774441109855257	153	3.47206494077965	152	1
47	T4-P4	221819	221882	63	4.98521691625682	2.14869795028403	16.7370622018851	5.38291325152673	22.5475238248862	1.41066460008753	91	2.76131648700921	90	1
47	T4-P4	245785	245843	58	4.60541087333999	2.1202064301728	16.6766814914059	4.71824479390442	17.8112429662362	1.71344985293867	61	1.22058891520838	94	1
47	T4-P4	254959	255022	63	7.13649665618212	1.99313350846812	28.8897968791788	12.8202753280532	28.8897968791788	3.06618953865951	93	4.18229126444797	92	1
47	T4-P4	294373	294465	92	5.95975829277634	1.94204615211085	27.1794237605516	9.41755575600683	27.1794237605516	0.8712406084984	139	3.25820317570862	138	1
47	T4-P4	300800	300866	66	4.34895968405046	2.10462401639504	15.3925097116348	4.26993947868826	15.3925097116348	1.67544842491624	90	0.669813896870875	89	1
47	T4-P4	333337	333422	85	4.90988451826108	1.94714586990902	17.0162379173694	6.35836682465688	17.0162379173694	0.650005702321621	147	2.76090775069381	146	1
47	T4-P4	336873	336954	81	7.35918830039881	1.99105891321742	29.1049446208856	13.661286830116	29.1049446208856	1.0895528160655	153	4.2653799636336	152	1
47	T4-P4	362838	362909	71	5.08892448156297	1.91607436387943	18.5540773468564	7.05386740304634	18.5540773468564	2.53660349719561	61	2.98209129819322	89	1
47	T4-P4	369131	369194	63	6.64543743921609	2.02242703734132	25.1412587395241	10.796958261595	25.1412587395241	2.27129825645343	96	3.52773777522642	95	1
47	T4-P4	449373	449458	85	5.46689365437857	2.59761552100453	21.3950844270969	4.42926342748623	24.4773549737819	0.576124755165899	132	0.736823161933329	147	1
47	T4-P4	452811	452869	58	5.52871299275337	2.32943174528276	22.3063515247104	6.7801781676069	22.3063515247104	2.36044070215727	92	2.67821028358548	91	1
47	T4-P4	453820	453879	59	6.153572419834	2.50385117738692	23.9091645705264	6.78345234071521	23.9091645705264	2.08879940435744	92	2.97538317237445	91	1
47	T4-P4	463982	464064	82	4.41832674116113	1.93925370482064	16.3694212653122	5.19094466234542	16.3694212653122	0.612099567771311	136	0.616830883656199	141	1
47	T4-P4	543865	543974	109	6.31766752697231	2.23369274618588	26.9698454964667	7.99957042916437	26.9698454964667	0.759767943625487	149	3.65070728222466	148	1
47	T4-P4	562522	562586	64	6.07688710282571	1.92919018248779	21.9636521009762	9.92229762405952	21.9636521009762	0.852450452772807	150	3.55488777331363	149	1
47	T4-P4	576906	576962	56	6.14638769416344	2.27835910129393	21.873425116346	7.27772346170208	22.915821275961	0.94761573049376	141	1.18034970659317	152	1
47	T4-P4	579069	579128	59	4.81146868773594	1.97029359017196	16.8366751892439	5.96339310269215	16.8366751892439	2.32478582250879	90	2.80921972394823	89	1
48	P4-Cz	70509	70559	50	4.65391719593416	1.73891116959533	15.156445435819	7.16279479919162	15.156445435819	1.0808782172037	146	1.21351617752992	145	1
48	P4-Cz	85940	86016	76	5.1085073266371	1.68964427489369	17.3977276053594	9.14107935093394	17.3977276053594	0.756971684986761	146	2.69109401607919	145	1
48	P4-Cz	88088	88150	62	4.88453589499259	1.72983993877425	19.1260221111416	7.97323879155819	19.1260221111416	0.719700190464091	132	2.2977497489105	131	1
48	P4-Cz	104446	104522	76	3.46928351800266	1.81302555039648	10.9423735147103	3.66160705915011	15.4922323136899	0.331318235337036	144	2.21672433869691	145	0
48	P4-Cz	220385	220477	92	3.41880740085204	1.80071104097129	11.1382831124813	3.6046343419627	12.5559894536988	0.984244039771663	89	0.762124058322095	88	0
48	P4-Cz	254963	255038	75	4.85198008957025	1.69834530061415	18.9045429375338	8.16180157706635	18.9045429375338	1.79530359714033	91	2.67673229165019	90	1
48	P4-Cz	361637	361714	77	4.79309454577232	1.74265000743802	17.6354088311439	7.56504727740175	17.6354088311439	0.404737958716784	131	0.438541150614352	130	1
48	P4-Cz	450334	450418	84	4.22038275628627	1.86686894847041	15.1799650199487	5.11064854016214	16.5068358480857	1.04176093285908	95	2.30698496187257	94	1
48	P4-Cz	562508	562588	80	4.36166427592753	1.75214400052258	16.3307853890779	6.19676285753096	16.3307853890779	0.547100586088088	136	0.733759389397285	144	1
48	P4-Cz	575234	575294	60	4.20865871817214	1.79416527245447	13.2552448610042	5.50253137487565	13.9102318961974	0.409574618824598	138	2.34007884468258	137	1
48	P4-Cz	587778	587840	62	3.98135925936419	1.69158391990421	14.2206711719855	5.5395647098676	14.2206711719855	1.20052132712437	85	2.13466749253659	84	1
48	P4-Cz	599954	600002	48	18.1381606456459	1.97270055305427	78.8845184341433	84.5403721713904	78.8845184341433	3.98660391369893	83	2.73779428427051	82	0
49	T3-F3	236718	236797	79	3.52801504114462	1.76070827418434	13.0654916342492	4.01500458664087	13.0654916342492	0.783198938377579	83	0.770302222797612	82	1
49	T3-F3	599944	600002	58	12.1963061971546	1.78636294216658	61.9546952623274	46.6140928238479	61.9546952623274	2.83983732293011	83	1.88480936010555	82	0
51	T4-F4	60994	61037	43	3.62034022906606	2.07061727517099	11.019058371669	3.05702581651535	12.6613289491154	0.0934362076677488	107	2.16879706193684	197	0
51	T4-F4	78902	78951	49	5.90687552521772	2.11751968802602	21.9379116454092	7.78145346026588	21.9379116454092	0.688461990104155	166	3.09300312151592	165	1
51	T4-F4	333325	333400	75	5.36842088846895	2.02697031538033	20.742531677483	7.0145261388138	20.742531677483	0.530292454719173	149	2.90140879907355	148	1
51	T4-F4	599954	600002	48	25.6391844201462	2.42330229576419	112.639133106062	111.942042013149	112.639133106062	3.29591884634809	NaN	13.0190071503599	300	0
52	F4-Cz	14973	15061	88	5.64527181466427	1.76413148515001	27.097862845242	10.2401852466552	27.097862845242	1.18000137268281	123	1.24642969773224	132	1
