nChannel	strChannelName	indStart	indStop	indDuration	Event_RMS	Window_RMS	EventPeak2Peak	SNR	Amplpp	PowerTrough	Ftrough	PowmaxFR	fmax_FR	EvPassRejection
2	Fp1-F7	112696	112913	217	10.6927251039784	4.77224382155334	62.2932741838971	6.4026913785108	62.2932741838971	2.9105260807116	137	3.03047565574268	136	0
2	Fp1-F7	113795	114124	329	15.5067109905414	4.77018031697647	89.8068221005073	14.8396033784025	89.8068221005073	3.93336395215542	83	4.00677508696864	103	0
3	F7-T3	112697	112967	270	29.401813895534	7.4907444142683	162.268528848505	26.4945039006056	162.268528848505	7.72090899281212	166	13.0252495930191	165	0
3	F7-T3	113062	113169	107	7.12398913517296	14.0854668696718	30.5658673481396	1.23106589839622	162.268528848505	1.68686087569558	157	2.95220170167005	156	0
3	F7-T3	113266	113442	176	11.1886586776757	13.9443312222841	48.5207045348581	2.72184586514009	162.268528848505	3.91970344436973	146	4.11305786080274	186	0
3	F7-T3	113859	114125	266	18.0923219681209	9.20573656693797	95.9228006792439	7.35697661305041	142.25770327542	4.2149511060534	107	5.08536285721623	106	0
3	F7-T3	114415	114459	44	5.93121545114047	8.73043807092596	22.5584494967023	0.968224913131484	95.9228006792439	1.06236790494687	172	2.8759027155254	216	0
4	T3-T5	112702	113060	358	25.2524155604004	7.26025345337145	182.830107921651	20.6976656862703	182.830107921651	6.5292231306068	159	9.99068436435587	158	0
4	T3-T5	113320	113394	74	8.59071232217103	13.0039300628395	33.0413152594851	1.56350484767822	182.830107921651	1.55903899428272	220	4.31734293443204	249	0
4	T3-T5	113503	114027	524	10.3972753974378	12.2609793104597	65.2494114949991	2.86533270934038	182.830107921651	2.9504165208412	129	3.58832219997833	128	0
4	T3-T5	114389	114513	124	9.72970282829159	7.0213176458623	56.2867479181368	3.34432358881889	65.7027704779889	1.98439210520074	130	1.8437218975119	129	0
4	T3-T5	119927	119997	70	8.50514670440715	2.94367478720804	30.3925284256075	8.3480292485023	30.3925284256075	1.44976374841527	83	1.32927132076571	82	1
4	T3-T5	126586	126684	98	6.86345099626886	5.63861460653902	31.1927124636448	1.50056414777017	47.838898467052	2.02021757166173	137	2.43431308563699	136	0
4	T3-T5	127259	127313	54	6.78084109936398	5.98990628506626	24.2628860787868	1.30426462520863	47.838898467052	1.75232348930232	72	2.67650467749207	84	0
4	T3-T5	127949	127999	50	6.06422156299319	5.13716750719264	23.8128517225879	1.42336273600237	47.838898467052	1.67658283423198	94	1.92538230524339	143	0
4	T3-T5	284527	284597	70	10.6915151507648	3.72643562403645	49.1306309850604	8.23173281101454	49.1306309850604	2.14889510353487	95	2.67392918924814	112	0
5	T5-O1	112840	112911	71	11.79253340443	9.13692629736638	50.7076619704526	1.87911439938718	155.753974768426	4.42662905780754	83	4.12216746596051	82	0
5	T5-O1	113039	113101	62	10.1491268741343	10.395231514732	39.64543735875	1.25230629316133	155.753974768426	1.78908745068679	161	4.45057563553959	160	0
5	T5-O1	113242	113315	73	12.1415496642519	10.3264789293199	46.959456576939	1.77317125167529	155.753974768426	2.19201747713507	83	3.82492912932035	82	0
5	T5-O1	113573	113699	126	12.6426538616793	10.3170221273275	66.6468840654829	1.82517224904302	155.753974768426	2.63602887006104	182	4.63150044697065	181	0
5	T5-O1	113844	114119	275	14.124065780657	10.0532768000793	99.4959311964517	2.41379732172877	155.753974768426	4.03102743810831	71	4.68886287300068	82	0
5	T5-O1	114314	114362	48	6.4354871621773	8.62774202933985	22.7218255713815	1.31120849126907	99.4959311964517	0.488639345955137	139	3.79942028123485	200	0
5	T5-O1	114970	115056	86	17.2477704336758	6.36088752757847	73.6338739518925	10.8219321678948	79.0371378039494	3.75542696158922	165	6.81794358918664	164	0
5	T5-O1	115621	115792	171	7.4209967769608	6.03109113080769	47.2498639157959	2.54029043052098	73.6338739518925	1.79865544440647	153	2.48866295607793	152	0
5	T5-O1	116403	116475	72	9.77650451534109	5.24843202957703	42.7766462335252	4.36884097326811	48.1212987890977	1.35190889746994	159	5.31249253283999	158	0
5	T5-O1	116810	116884	74	9.84431142172994	5.0041170661212	38.9116723243279	4.33235891058406	42.7766462335252	2.06566020219292	123	2.57854849018931	152	0
5	T5-O1	284527	284597	70	11.3020695401053	3.49289071198495	54.5683417786026	10.4699824949596	54.5683417786026	2.27450641843472	98	2.48972524838259	117	0
6	Fp2-F8	112730	113254	524	14.0339518459925	6.21041063762555	120.753545872994	7.04637929240524	120.753545872994	2.93334498662356	138	4.98801640155007	137	0
6	Fp2-F8	113611	113738	127	7.6672043208394	10.021566519232	33.2276236405466	1.2976307440273	120.753545872994	1.33480255785378	179	4.00799120355925	178	0
6	Fp2-F8	113906	114004	98	13.1462467735133	7.76426549186085	64.7509751270448	3.52352335187537	67.1233711488749	6.43570086388999	94	3.538876792782	93	0
6	Fp2-F8	114085	114129	44	6.05864028141907	7.77529657728036	22.9828126499095	0.814477422908283	65.8233856213036	0.687372307337333	140	3.59378855276488	193	0
6	Fp2-F8	114210	114489	279	10.0959785485528	6.81943646970201	61.9378955807792	2.78941376429752	65.8233856213036	2.3915056647119	98	3.45894776453459	125	0
6	Fp2-F8	114609	114709	100	8.39908367701106	7.22401905950196	36.8611985852806	2.06165636806242	65.8233856213036	2.28340702538623	173	3.26269956437365	172	0
7	F8-T4	112765	112858	93	32.6808102428449	6.91800303652272	142.355117962238	26.0630744055654	142.355117962238	6.80685753213794	138	16.7648473571021	137	0
7	F8-T4	113036	113085	49	6.99685733868351	10.3394516987448	23.4188791681898	1.02795122531929	142.355117962238	0.747363285930631	158	3.75304521677258	199	0
7	F8-T4	113355	113412	57	7.46053417765649	10.7422205202089	28.0649572754805	0.996675427115697	142.355117962238	1.94148456049952	164	3.77228937357363	200	0
7	F8-T4	113542	113588	46	11.6087803781507	11.2688111692711	42.8470678058692	2.00419267926515	142.355117962238	2.89884176280742	67	4.24722463326601	82	0
7	F8-T4	113673	113739	66	12.7239029572197	11.3465672184811	44.6973716463758	2.23431012576027	142.355117962238	2.08713846269915	164	5.22788749236267	163	0
7	F8-T4	113930	114269	339	9.52039409580082	8.40870361800506	47.6859290550248	1.53817340127987	66.0213235783434	2.87766718952615	61	3.2152921399813	97	0
7	F8-T4	114365	114494	129	12.8440298138237	7.8803967244294	65.8947575592924	3.36212455614864	65.8947575592924	0.981558359359407	158	4.44164794255029	226	0
7	F8-T4	115840	115900	60	7.89068218375492	4.04924835868999	27.0339039944655	3.79734690116355	40.2061097020457	0.778542210191222	130	1.56956437712866	138	0
7	F8-T4	125991	126044	53	6.86570465428665	5.05779039880847	27.8846011454446	1.8526372976501	45.0065250288313	1.14678095936675	183	2.90283060263702	182	0
7	F8-T4	127031	127076	45	9.00700916302743	5.69978868010922	28.7011536176839	2.4915688838296	45.0065250288313	1.79396712654966	160	4.37862557416998	159	0
8	T4-T6	112810	112905	95	11.6427367170623	11.0086891637335	49.5974721100415	2.50887376244913	154.738088373503	4.74216932533644	61	5.4030759456732	82	0
8	T4-T6	113108	113543	435	19.018721252995	8.18482756817086	154.738088373503	5.92540253235963	154.738088373503	4.38053365010117	111	6.36934145899267	110	0
8	T4-T6	113899	113978	79	10.9686899192046	11.4019196757321	49.3024355592443	1.84000320409193	154.738088373503	2.31112153047937	180	4.43813192667675	179	0
8	T4-T6	114997	115055	58	15.9082781722743	6.6990707804858	57.7720645594628	6.08148231456333	57.7720645594628	3.04087124208252	140	3.11216495758388	139	0
8	T4-T6	115715	115823	108	10.0747154428904	6.34278924987328	45.6482810813594	3.26679740284187	57.7720645594628	1.46329350136999	145	5.33101683761649	144	0
8	T4-T6	116406	116476	70	10.2293705095551	5.81166896311946	45.7593428613645	3.5029743800934	48.9104407136244	1.89731193880161	160	5.22719214665798	161	0
8	T4-T6	125325	125385	60	7.10007945590884	4.18854554196457	25.7395439016937	2.87342544988202	49.1687817296085	1.35382515064621	149	3.94946917947022	148	0
8	T4-T6	277085	277163	78	9.421161760509	3.67299047588519	36.257341345786	6.57914286119221	36.257341345786	2.37867333644328	83	2.71675601110658	107	1
8	T4-T6	284515	284571	56	13.7708707742155	4.57634763785925	58.8421060001307	9.05492359644808	58.8421060001307	3.19963884434043	160	3.18510240545672	159	0
9	T6-O2	112709	112964	255	9.03383642968091	16.8576925989714	45.6444186647637	1.74189453571625	325.648719872536	1.66761384205273	118	1.67149757857294	117	0
9	T6-O2	113164	113959	795	25.3605783548945	8.2143326192002	325.648719872536	12.0411300391564	325.648719872536	4.76773097547182	107	7.29358208731055	106	0
9	T6-O2	114407	114541	134	14.4314428317007	10.4953831691359	76.715968233683	4.90627772441997	111.595971551302	3.43321827463864	137	5.09076678267107	136	0
9	T6-O2	114965	115094	129	20.8221924299898	9.54026157866693	108.103011327596	9.89761541758688	108.310819975884	7.1483194415021	61	8.35743997724492	93	0
9	T6-O2	115298	115493	195	10.85281377273	10.974216122075	51.3436886278749	2.57328373221667	108.310819975884	2.35911351664876	178	4.08182981745533	177	0
9	T6-O2	115631	115799	168	17.639333563825	9.50597482784445	107.260186432052	7.65778993792941	108.310819975884	3.19056310011448	148	6.42314360313392	147	0
9	T6-O2	116000	116061	61	15.6867193913455	10.5717617279782	61.5448381854235	4.7142746779626	108.310819975884	2.40052443759027	171	8.33574367208314	170	0
9	T6-O2	116142	116196	54	10.6416979430113	9.78376420815134	44.5853662225424	2.2878998984451	107.260186432052	2.43721658457056	165	5.65618867357671	174	0
9	T6-O2	116371	116474	103	14.127135700588	9.23844974259685	68.7975119661418	4.23531762985517	107.260186432052	2.0275079262433	160	7.57252303110103	159	0
9	T6-O2	116868	116968	100	10.9225693356506	8.04790143019207	46.9163999434281	2.80497624233154	69.0901466497542	2.34934116235912	149	2.42147571182638	148	0
9	T6-O2	117249	117313	64	6.79926796640819	7.98706269610249	27.8976128842247	1.01573405152051	69.0901466497542	0.961418662471967	164	3.86805580962017	163	0
9	T6-O2	117444	117502	58	8.65674621977116	7.50329419800762	36.9353480128742	1.65476231476582	67.7015961425139	1.62829731687989	89	2.03232654075604	123	0
9	T6-O2	117623	117707	84	12.1230804995024	7.08846269840372	51.321334609477	3.41675902134823	67.7015961425139	3.21071642787174	178	5.50613907393724	177	0
9	T6-O2	117817	117866	49	7.38703356526239	7.54570245751233	25.9739697066609	1.2049892823058	67.7015961425139	0.948614750959688	174	3.69208666143931	179	0
9	T6-O2	118028	118148	120	8.01758088370068	6.63228502476358	33.577922709307	1.81267047552033	57.0265633709421	1.87235404375667	151	2.09481278136798	150	0
9	T6-O2	118385	118431	46	8.67513058498437	6.82049749951838	32.1736855073794	1.98085374820532	57.0265633709421	2.27965151328745	190	3.96117487759643	189	0
9	T6-O2	118853	118898	45	8.53144766183087	5.92567379675659	37.2634945278172	2.27909424057455	57.0265633709421	2.14660774788801	96	2.51282508760979	125	0
9	T6-O2	277077	277164	87	9.75612179238135	4.4062454190849	45.2830189555013	6.90621677461237	53.8518563263299	1.97757917096697	82	2.78793535272566	106	0
9	T6-O2	277690	277763	73	12.885013647925	5.29104200105226	50.6832454914797	6.6668513704307	58.6556505985108	1.34839137477997	160	6.07244308241772	159	0
9	T6-O2	278974	279042	68	7.21527801514769	5.43026449201168	28.5766360214504	1.96937024565703	52.7964718900914	1.8442153037372	122	2.40357609499863	121	0
9	T6-O2	279344	279488	144	7.57561423404455	5.5587116358255	31.0611238343118	1.94995838007627	52.7964718900914	0.797218922619942	NaN	3.76389555400814	300	0
9	T6-O2	279807	279887	80	6.8117309918407	5.06353087934451	25.6723472260969	2.10516551178751	40.7321180514213	1.12351634983915	145	1.36461987083826	160	0
9	T6-O2	281375	281427	52	6.69255796719954	3.83504094583332	23.8252601809429	3.04539950382721	36.3560716110828	1.67490195866663	167	2.43887573795644	166	0
10	Fp1-F3	87262	87330	68	4.25720570067894	1.44540526128655	15.2531476275956	8.67501046993021	15.2531476275956	0.408393547986094	131	0.473973411521867	130	1
10	Fp1-F3	113852	114061	209	7.42162631375096	2.87920402939864	36.0142608896514	6.64436197193691	36.0142608896514	2.3728009492467	61	1.40486027900874	82	0
10	Fp1-F3	139325	139405	80	5.43050439679646	1.52984909957222	19.5447596151744	12.6003656723687	19.5447596151744	0.693779242714453	88	0.870934193431206	103	1
10	Fp1-F3	350752	350807	55	3.24682529177612	1.76901326998601	10.1706214289364	3.36864820624728	14.0329907802728	0.433133950613678	138	0.443009113054988	144	0
10	Fp1-F3	420362	420427	65	4.26146878856167	1.70242550444186	13.9535832064997	6.26588457035318	13.9535832064997	1.42598996567245	92	2.38643893783788	91	1
11	F3-C3	87270	87339	69	5.50732014640722	1.74578507529973	18.9058523491158	9.95174166287936	18.9058523491158	0.778837309006659	91	3.3873953097868	90	1
11	F3-C3	113973	114042	69	7.542545951299	2.75099082907088	28.2371095466022	7.51722664075286	32.9440844934489	1.0322912131933	151	1.12129770554091	156	1
12	C3-P3	112756	112839	83	5.41989336302953	2.53981584343285	21.7461020452701	4.55383224195375	21.7461020452701	1.72482665563806	61	1.72363234668562	84	1
12	C3-P3	215529	215642	113	5.02791024290481	1.92595824909204	21.7525749055221	6.81524222200995	21.7525749055221	0.956555427340223	83	0.944740947446323	82	1
12	C3-P3	375860	375906	46	2.79860478427085	1.95459064405869	8.26149567243678	2.05008332518046	15.5692685789777	0.521376010122495	155	1.18102194802416	154	0
13	P3-O1	112526	112574	48	5.32225888330176	8.44153775263586	17.2995795144575	1.37370465452866	158.009494739946	0.939449437272999	182	2.9973898077649	181	0
13	P3-O1	112842	112898	56	13.9821958353551	8.67789568524092	54.7270625396739	6.43162314336461	158.009494739946	1.8391545420358	139	7.01587674549206	148	0
13	P3-O1	113161	113380	219	20.5641611782518	6.90209733534394	158.009494739946	13.3564699857472	158.009494739946	4.41420309793734	83	4.26891100459537	82	0
13	P3-O1	113495	113540	45	9.04138319938663	9.77163428701492	40.7257760470428	2.41352456794741	158.009494739946	2.11813565315289	125	2.5026577559429	124	0
13	P3-O1	113637	113694	57	7.1594063538159	9.78214821862385	28.613830568674	1.54757739117079	158.009494739946	0.919168676371719	159	3.86144121555066	158	0
13	P3-O1	113925	114116	191	11.5059092129435	9.49208571336877	56.6865434487117	4.26588857145685	158.009494739946	3.12163919116244	71	4.22675933009176	82	0
13	P3-O1	114460	114537	77	12.1016553223512	7.01743223634436	50.1246179730092	5.36148257661027	69.3405109532767	2.59107672269744	143	6.40591617541938	142	0
13	P3-O1	114969	115069	100	14.9424836101686	5.96088875135172	68.2954695703701	11.6025483704494	69.3405109532767	4.64700790587878	61	5.80728437421268	95	0
13	P3-O1	115721	115792	71	9.87036520274134	5.76040029687293	45.5492838147501	4.77466520371484	68.2954695703701	1.3836258642885	159	4.4294364394774	158	0
13	P3-O1	116404	116475	71	9.52668144503077	4.98844370506492	38.5499554587617	4.53580855110566	45.5492838147501	1.56213002980509	159	5.31437173955552	158	1
13	P3-O1	116812	116888	76	8.61716387798729	4.7936484305013	35.4847820263523	3.92923083959109	39.5065845652979	1.92694876607335	118	2.44999154976843	149	0
13	P3-O1	117634	117818	184	5.92017252001464	4.20761077857206	28.2840598634805	2.3263732979704	35.7789824277812	1.62123093807772	171	2.20651018893494	170	0
13	P3-O1	118004	118054	50	5.40027527328896	4.0602783610859	18.1007372374727	1.99831161076952	30.0328181302409	0.834827398092133	144	2.85003228911874	143	0
13	P3-O1	277084	277136	52	5.79648614145519	2.83411987129804	21.6381888248782	4.18305113422347	28.0350874409156	1.77866351583689	105	1.71780154425636	104	1
15	F4-C4	551850	551921	71	7.94576494317287	2.72737042036254	31.6298130232087	8.48756619783895	31.6298130232087	1.25101560986407	108	1.19839841630873	107	1
16	C4-P4	112774	112893	119	10.6532728917861	3.68876546882105	48.8618017208566	8.34072911070603	48.8618017208566	2.2394766316828	119	1.89452053786338	118	0
16	C4-P4	113969	114014	45	14.5247214160769	4.62564200824989	61.2617120466088	10.0121356547511	67.4462551622588	3.27113673668631	190	6.45869471522603	189	0
16	C4-P4	114998	115055	57	6.52489089966096	4.24430674885805	24.2170855008688	2.78788390246052	67.4462551622588	1.04826350945716	160	3.46844894536608	159	0
16	C4-P4	199221	199283	62	7.93887810320016	2.79302732723012	25.4617901612343	8.07919141155227	25.4617901612343	1.47615373067589	90	0.843743985683557	89	1
16	C4-P4	217334	217424	90	5.46958792229146	2.80790293151723	17.8413122545712	3.7944168066055	18.9548889378946	0.701033134582481	NaN	3.79529663445775	300	0
16	C4-P4	507544	507584	40	4.69632436533707	2.62630490365509	14.4700718773212	3.19761285398192	16.6200808305482	0.408604178256913	154	2.48445673121705	206	0
17	P4-O2	112084	112148	64	9.59700117226325	9.25264632226128	38.1496694972985	2.05352947019374	85.0381449327574	2.81012142580127	176	3.17669156240233	175	0
17	P4-O2	112256	112297	41	9.82839839059547	22.6090080894229	33.4031782134363	1.96115880417281	447.699644387117	0.417773928537192	121	5.52635898519212	215	0
17	P4-O2	112664	112880	216	14.0523523735161	24.7151307982151	65.5960214569054	2.56230717625953	447.699644387117	2.5064036907269	78	4.17239147918887	112	0
17	P4-O2	113103	113670	567	44.1970266301307	11.4482389358221	447.699644387117	20.1705665763521	447.699644387117	8.91122761421968	109	13.2702463198026	108	0
17	P4-O2	114135	114211	76	9.82063736068513	25.9681820897757	38.4954257702759	1.09737636808203	447.699644387117	1.69158132807616	159	1.83486955585198	166	0
17	P4-O2	114370	114539	169	19.124877975447	14.6345154358782	116.422635315136	4.00332620609492	167.556155976566	4.38507992988098	136	8.99237171381674	135	0
17	P4-O2	114823	114879	56	8.05535361034023	14.0675417875663	29.2962980789427	0.800049199226831	140.9042231939	0.946524500408271	122	1.61007364559204	144	0
17	P4-O2	114980	115086	106	28.8424529335438	12.7522892152443	140.9042231939	11.5573406089104	140.9042231939	10.5316608240154	61	11.6925803397054	91	0
17	P4-O2	115288	115493	205	13.8176506446538	14.557491955268	67.6265656058707	2.42591989398377	140.9042231939	3.10495596128758	178	5.15208450995137	177	0
17	P4-O2	115634	116061	427	17.8365245546763	12.6323293949025	137.027398349001	4.59631389875266	140.9042231939	3.8088246549873	150	6.51886580745036	149	0
17	P4-O2	116141	116211	70	12.943730104472	12.8749003647732	64.2980737278784	2.62590189585529	137.027398349001	2.9865268192619	171	2.98957582710549	172	0
17	P4-O2	116373	116474	101	19.0644987713764	12.2297850853661	92.2663889271243	5.69272263562242	137.027398349001	2.56596011581668	159	10.3618315378645	158	0
17	P4-O2	116782	116969	187	16.3580471348032	10.783906504663	88.7102210200349	4.44081928992276	110.379160626535	3.41524161678465	146	3.50414428184714	145	0
17	P4-O2	117257	117315	58	12.193301530782	10.514644327683	53.5150951122344	2.65176128392874	94.4386170541309	1.50169207855666	161	6.79300475874297	160	0
17	P4-O2	117528	117708	180	13.3441020922054	9.01884858449374	67.0581019094085	4.11459426077794	88.7102210200349	3.59716318339703	170	3.81855682536816	169	0
17	P4-O2	117971	118261	290	10.5021832540343	8.23330335806334	67.2218534781857	2.23253879807338	68.1561537049394	3.08288705895998	149	3.34469064801388	148	0
17	P4-O2	118362	118461	99	11.2083004677333	8.61244346300582	44.6607926880872	2.2845849284297	68.1561537049394	3.65497426863095	147	4.45616051863699	146	0
17	P4-O2	277074	277166	92	15.3440095745155	5.75119390183185	67.6060510896431	13.2621197169842	71.9069641040531	3.1819114711276	83	3.6210553572479	106	0
17	P4-O2	277693	277818	125	16.1549724367645	6.47114032536717	68.2173388086965	9.55508111668499	71.9069641040531	2.85708459659271	134	6.1206802502624	133	0
17	P4-O2	278397	278471	74	12.5523479360076	6.85039840149701	54.4011071875934	5.23400689088589	68.2173388086965	2.45745674263495	144	2.46961252555327	151	0
17	P4-O2	279344	279444	100	8.67379192245886	6.66339957927803	33.1648164020547	1.97679378444246	59.9390953011993	1.10508033715036	NaN	4.28419929810697	300	0
17	P4-O2	279807	279892	85	9.0182620831565	6.21008256669889	35.0740856401384	2.2212056048934	49.3370713255121	1.47737991173909	152	1.58307331773584	156	0
19	Cz-Pz	113599	113663	64	4.61421791545583	2.81950513813613	17.1181743472129	2.67824573151342	26.8506308874321	0.757043783190223	155	2.13384541297018	154	0
19	Cz-Pz	253321	253400	79	4.49609861352312	1.98035479025702	14.8675005814486	5.15448938724211	15.3770308324753	0.370957485187115	110	2.78935121399289	109	1
19	Cz-Pz	295492	295601	109	6.03148632726629	1.94444433112248	27.0541051246322	9.62182973407634	27.0541051246322	2.01557199876248	83	2.74478013504334	82	1
19	Cz-Pz	420350	420451	101	4.39420039514649	1.97905485432612	16.0748770822028	4.92996747193671	16.0748770822028	0.673530912765226	221	0.884771775205849	300	1
20	Fp1-Fz	26994	27043	49	2.9026350383658	1.68423311589655	8.72883629909071	2.97016422082688	11.655100591491	0.505178297085934	154	0.515292368299326	167	0
20	Fp1-Fz	112764	112830	66	6.51913963325274	2.4710284869756	25.7627578430963	7.13576520289475	27.3736249768906	1.72960287417575	61	2.58653349209182	101	1
20	Fp1-Fz	112967	113031	64	3.2522015344935	3.12683242850318	10.865430754156	1.27154940515236	29.9358476663627	0.464156698612676	184	1.80104021835449	183	0
20	Fp1-Fz	113960	114013	53	4.46611956365077	2.79318359184695	14.16143869718	2.58750874611095	29.9358476663627	0.837356898146054	100	1.12810398032501	134	0
21	Fp2-Fz	112757	112846	89	7.37674192076418	3.26714961183186	26.7887090112134	5.09789791426567	28.295860895949	1.52019980853424	83	4.31905780442194	82	1
21	Fp2-Fz	113871	114089	218	8.61265463595261	3.05815881336549	45.0978000758447	7.93147564523038	45.0978000758447	1.65478539728555	166	3.74150291934351	165	0
21	Fp2-Fz	401038	401113	75	5.17197409452233	1.92149013065797	19.9271671019185	7.2449662308108	19.9271671019185	0.502242422209999	101	0.75998097041866	112	1
22	F7-F3	112698	112993	295	8.93009280744327	6.78250550956528	48.03768338894	5.52897626669904	48.03768338894	2.20226864529641	133	3.73198933316517	132	0
22	F7-F3	113794	114122	328	18.8384601423343	4.69088670591242	114.077589707751	21.5070924640723	114.077589707751	4.58406152923362	104	5.08594549973131	103	0
23	F3-Fz	113931	114043	112	8.95952121050789	2.72798845682468	48.891619865109	10.7865993336498	48.891619865109	1.93486088439973	119	1.34254427719179	118	0
23	F3-Fz	128402	128453	51	3.48666247463283	1.81006947915225	11.4993402218736	3.71047341537792	13.1630681576146	1.177230918265	84	1.79946887378909	83	0
24	F8-F4	100709	100752	43	4.9126650467099	2.76783229052862	14.2903812078409	3.15032068801672	19.2748485993321	1.1589277127182	169	2.15372703344851	168	0
24	F8-F4	112765	112854	89	32.3644493072511	5.52819886608145	138.11384341512	34.2743421945235	138.11384341512	7.28894426839059	139	16.8563669931184	138	0
24	F8-F4	113948	114004	56	14.5359074928696	7.33610250369186	58.532282987601	4.81111639170076	68.0614615983287	2.5830702797326	171	7.69158571646238	170	0
24	F8-F4	114130	114180	50	10.309272047834	7.43275636376074	47.0261266046457	2.53523305987161	68.0614615983287	2.33700293632604	190	4.39327309650202	189	0
24	F8-F4	114396	114488	92	13.6664450006921	6.8992067772467	68.0614615983287	4.77891960090445	68.0614615983287	2.85202770575176	161	6.04616058579405	160	0
24	F8-F4	114609	114654	45	8.02271073122265	7.15075770575244	31.4601657363128	1.79090542874205	68.0614615983287	1.73172868550972	181	3.64485773821992	180	0
24	F8-F4	114941	114988	47	9.68587157452299	6.55581799590657	34.2819801351868	3.41464855666531	68.0614615983287	2.34511780274148	156	2.50807157173557	155	0
26	T3-C3	112699	113056	357	23.2738867407245	5.19821949080915	174.380540737281	28.0220037964474	174.380540737281	6.51122486641032	162	7.02790912046036	161	0
26	T3-C3	113267	113398	131	10.2943538269615	10.9893960469051	42.5772361555038	3.95635430668317	174.380540737281	3.68980388898729	144	4.24381778925927	189	0
26	T3-C3	113598	113639	41	10.6428028915274	11.288846179337	43.4158464935193	3.64152876495985	174.380540737281	2.21481141400033	108	3.62025346977649	119	0
26	T3-C3	126589	126642	53	5.85135873969197	5.37486696758348	24.2511641335859	1.21539434602654	44.285048425632	1.33447131454665	170	1.37683089090836	188	0
26	T3-C3	127256	127303	47	7.62310188490669	5.60726428350605	29.3098600950971	1.85282666870525	44.285048425632	0.518097699119608	146	3.42455084025502	198	0
26	T3-C3	128831	128922	91	5.04526549836648	3.5697047629459	18.3817754349697	1.99757665039491	29.9949871847615	1.08672087166078	122	1.11341778394335	139	0
27	C3-Cz	112753	112813	60	5.59530199401982	2.37595085486241	21.1855759570186	5.54590156048916	21.4815852186806	2.17233080593825	61	1.44795884437778	85	1
27	C3-Cz	115368	115451	83	5.46863322852089	1.98264215916847	22.2069965468666	7.60797225821701	22.2069965468666	1.17460385619591	85	0.669001834909285	84	1
27	C3-Cz	550316	550359	43	3.69297432844625	1.90543794853154	10.6453823103646	3.75632323547263	12.2749511570674	0.414186061878782	176	1.83257801337442	194	0
28	T4-C4	112696	112890	194	6.75765215948814	4.41619673361058	32.7290741092259	2.34150366705211	43.833459146509	1.91389438779717	61	3.0262370024572	82	0
28	T4-C4	114028	114093	65	10.9253763266981	5.59839927601577	43.6018869343773	3.8135276282398	72.4930990396325	1.90984397353858	103	1.99818299720363	127	0
28	T4-C4	114605	114660	55	5.72701636404432	5.16566705150367	22.4823360236218	1.39442544076498	72.4930990396325	1.15587867309922	160	3.18305949375278	164	0
28	T4-C4	128343	128410	67	8.83665623216103	4.22694821877162	36.2523998223791	4.37040883142304	38.243950015133	2.15098424095227	83	1.84307164012203	82	1
28	T4-C4	284517	284579	62	11.2673918678122	3.98630061596062	58.764577699912	7.9892627475948	58.764577699912	4.48989063626615	61	3.17420451492719	90	0
30	T5-P3	9735	9781	46	3.66444357794785	2.200584075202	10.6988858507116	2.7729379196653	14.5209657264018	0.568438216084874	64	2.09449480592063	82	0
30	T5-P3	113131	113282	151	6.95760876485705	5.21077762470061	29.5613736718262	2.55049374952146	67.2169011751278	1.28823301140194	141	3.05370119511354	140	0
30	T5-P3	113773	114006	233	9.42486315963863	4.3794970364461	67.2169011751278	5.29496905741982	67.2169011751278	2.3035024900962	120	2.21418944052909	119	0
30	T5-P3	119906	119983	77	5.3589952356389	2.13715374560635	19.8425468009388	6.28774918375441	19.8425468009388	0.503304777249262	254	0.510435158903195	300	1
30	T5-P3	220403	220482	79	4.46914126804709	2.21131167205604	15.4164405163546	4.08458792371215	16.6163087737979	0.490601986995669	105	3.23004111200696	104	1
30	T5-P3	284510	284614	104	10.3636166851667	3.39724222783782	53.3076119361279	11.2658199613175	53.3076119361279	1.6936915576525	96	2.05773653252384	113	0
30	T5-P3	284870	284941	71	8.08084484478472	3.82676072610203	29.8788983980772	6.8705536782979	53.3076119361279	1.12972963380988	113	0.591980595908467	112	1
30	T5-P3	536943	536984	41	4.15205076116721	2.14638356057108	14.7248184623578	3.74205909823267	16.6478488916375	0.214668282624303	189	2.30579137572879	213	0
31	P3-Pz	209634	209682	48	3.32886853523052	1.89940685928817	10.5614224687719	3.07154784280034	15.9238082260588	0.681816421960938	177	1.50304631838219	176	0
32	T6-P4	112096	112162	66	9.721618259837	6.23883016255619	36.4691721292285	3.33999968372475	53.2207012836059	2.51461833781139	107	3.32069782482449	121	0
32	T6-P4	112499	112544	45	7.54931895031608	9.56256071858508	26.552290528598	1.27844273814958	138.589973364264	1.28194639678527	192	3.72579710788173	191	0
32	T6-P4	112679	112737	58	10.3571987815648	9.99225784139696	41.5523963025371	1.90237812851613	138.589973364264	2.53236423727049	130	2.430744841922	129	0
32	T6-P4	112971	113018	47	7.00092760674324	10.4254580964132	25.6367993525603	0.789719971563098	138.589973364264	1.34980322780835	150	1.40079634486187	149	0
32	T6-P4	113108	113258	150	24.8439933767646	8.1084898310177	138.589973364264	10.1071243944366	138.589973364264	4.86310707528228	108	3.09689399686721	107	0
32	T6-P4	113781	113835	54	8.4922035006792	10.1642869809362	30.9155712776065	1.22154133234458	138.589973364264	1.85458179002502	181	4.22636577020184	180	0
32	T6-P4	113918	113974	56	11.6982992115077	9.66516517801374	42.2181705409082	2.76049553802053	138.589973364264	1.82154129701055	170	6.32434967313165	200	0
32	T6-P4	114061	114107	46	8.10021928343327	9.83396851201573	30.8614593602785	1.288589444295	138.589973364264	1.28026523347831	143	3.19450107517491	207	0
33	P4-Pz	112767	112823	56	7.23686621817026	3.52928679087115	28.8072411806667	4.20462421511582	40.1419653391218	1.68287050124463	112	1.85821138373385	153	1
33	P4-Pz	307108	307159	51	4.45794033806308	2.28558481441662	14.24016953859	3.80429178961413	15.3069732513383	0.616624017472153	170	2.54221303702895	174	0
34	Pz-O1	112843	112899	56	13.1426032269487	7.8991365909184	55.13345051505	6.20600101790831	140.934962091902	1.79691560593623	139	6.70551138861864	149	0
34	Pz-O1	113161	113333	172	20.2842641208721	6.60690795240314	140.934962091902	14.0115288132238	140.934962091902	4.36050912760326	83	4.6114067232405	82	0
34	Pz-O1	113448	113491	43	8.82757955214433	8.88196333490502	36.5547436309898	2.30789045737245	140.934962091902	0.495139686617339	114	4.29864285225324	201	0
34	Pz-O1	113634	113691	57	6.1194391246589	8.9484084831754	22.3442813070858	1.09516630281505	140.934962091902	1.0997389120748	145	1.12844941507127	155	0
34	Pz-O1	113927	114158	231	10.2989057167461	8.57224982217228	56.4191093454936	3.44049957437044	140.934962091902	2.16144662709788	69	3.71797852076709	82	0
34	Pz-O1	114969	115069	100	14.1136484311273	5.42113342376336	61.9894466898507	9.11121859252229	63.6190617051514	3.20439033669779	166	5.6172107011522	165	0
34	Pz-O1	116406	116475	69	9.27563914230562	4.55938690430897	39.0461357857468	4.52228906120702	39.0500170180771	1.28846265772191	160	5.16091974568597	159	1
34	Pz-O1	116815	116868	53	9.18227639388898	4.43459580486257	35.0789061850067	5.34774322431507	39.0461357857468	2.23230095068588	125	2.49601738081334	153	1
34	Pz-O1	117635	117688	53	7.16223889381234	4.20325163977725	24.0777839856785	3.3510698781694	35.0789061850067	0.541312669819195	197	3.1061587540691	244	0
34	Pz-O1	117779	117847	68	5.44917562290519	4.21695298643066	18.2262575485743	1.98921625860097	35.0789061850067	1.01251871949085	177	3.12162940600277	177	0
35	Pz-O2	112254	112297	43	9.92209071972283	23.8998746844416	36.6454702044299	2.15002755662375	476.219010399616	0.671649180698095	163	5.6134962859859	213	0
35	Pz-O2	112433	112497	64	11.5338876885563	24.7061224134898	42.7570631660233	2.58462102062819	476.219010399616	2.25702837203239	129	5.87908193182244	128	0
35	Pz-O2	112664	112733	69	14.5868952466112	26.1989926757507	54.6141970725021	3.48940215233117	476.219010399616	3.42615654034986	105	3.56827150285145	104	0
35	Pz-O2	112846	112944	98	11.1479448948646	26.4416428037424	57.6235957239023	1.68188003671629	476.219010399616	3.52853090445988	111	3.71096679893352	122	0
35	Pz-O2	113062	113811	749	41.4939354433783	11.060215997366	476.219010399616	21.9209459579516	476.219010399616	8.29767657922423	109	11.7624461239357	108	0
35	Pz-O2	114011	114206	195	10.2069202993986	27.8628953074993	42.0770716269064	1.44505316577425	476.219010399616	2.05184316857988	160	4.99633273670307	159	0
35	Pz-O2	114286	114540	254	18.0077489418928	16.2872929258766	123.037060254245	4.35307378741863	167.821564591476	4.36745399658266	134	5.07349858860077	133	0
35	Pz-O2	114725	114767	42	10.6947293802852	14.0963107526884	47.6432844624224	1.57703459976309	158.658610309868	1.99143957878735	197	4.79867230269438	231	0
35	Pz-O2	114967	115096	129	29.6671921745672	13.6334539479245	158.658610309868	14.858047654035	158.658610309868	10.7073809069087	61	11.945806637462	91	0
35	Pz-O2	115194	115494	300	13.3437769906934	15.5128756569797	70.5337242725159	2.81709558799068	158.658610309868	2.98764859665521	177	4.821454595048	176	0
35	Pz-O2	115633	116231	598	17.4761210487609	13.1142481428448	144.911913894213	5.21797522132819	158.658610309868	3.78609866683498	148	6.23735350445083	147	0
35	Pz-O2	116400	116475	75	22.9745899780344	12.9958149733971	96.5946792657669	8.84247735200217	144.911913894213	3.16814524273329	159	12.8626182547275	158	0
35	Pz-O2	116800	117080	280	14.9133949948638	11.2555783302136	96.1433849566703	4.23529780804584	102.893461062549	3.05505051130956	149	3.21440358101152	148	0
35	Pz-O2	117255	117315	60	11.8141201889064	11.1670380077343	50.5193274807334	2.61378302180153	102.893461062549	2.03834231708951	162	6.3371718122	161	0
35	Pz-O2	117444	117501	57	12.4334194761035	10.5584771446631	62.7167508920932	3.42943303470663	96.1433849566703	2.82237750216664	82	3.53064777277431	111	0
35	Pz-O2	117616	117889	273	12.8562038359374	9.70783518591359	72.0614457379791	3.63981190708333	96.1433849566703	3.04593274489188	179	5.51876677132348	178	0
35	Pz-O2	117968	118461	493	10.8620366809483	8.36725445963176	77.8074223434349	2.47274148220841	78.9348113813325	2.98483526726861	150	3.75619776546429	149	0
35	Pz-O2	119059	119123	64	8.25575825415546	7.40114767425459	32.2969997083006	1.75157182837414	77.8074223434349	3.07309063221574	61	4.14691047898421	82	0
35	Pz-O2	276997	277166	169	14.5530631431233	5.52354199518518	74.572939040745	15.9339880042636	79.673719478881	3.2280760522586	98	3.50477993412309	103	0
35	Pz-O2	277688	277818	130	16.6179859911626	6.91078836184384	73.6139254930017	8.49166826917667	79.673719478881	2.95058153855659	133	6.1286520197855	132	0
35	Pz-O2	279249	279490	241	8.35947850059176	6.87811777109163	45.8205336921226	1.51636288444766	62.0678218466349	2.10941153370305	115	2.8513222820885	114	0
35	Pz-O2	279807	279896	89	8.56059661546303	6.25712719694399	34.6739378431042	2.0985261652008	49.8031994627046	1.54309269418156	148	1.75429949081852	156	0
35	Pz-O2	281373	281429	56	8.31163493223795	4.28494793136865	32.2292102845887	3.76254602787278	39.7744630254541	1.41173748151897	349	3.29194091475918	212	0
36	O1-O2	112092	112147	55	8.30259484516588	8.55703930985387	33.1469093672963	2.06598479098677	78.1507153449208	2.1578978185212	129	2.30656822935365	165	0
36	O1-O2	112255	112498	243	9.03343048629871	19.294611009318	46.4110005637497	2.21488748118893	365.714273935425	1.98463500226046	89	2.6907764936309	127	0
36	O1-O2	112664	112876	212	13.6133435390479	20.3977153434775	70.7794636288644	3.35051020007004	365.714273935425	3.19092822901205	115	3.07675249354739	114	0
36	O1-O2	113105	113839	734	32.0498386620755	10.1742930027564	365.714273935425	12.9125093391137	365.714273935425	6.27873541426963	110	9.29357238402131	109	0
36	O1-O2	114159	114208	49	7.76138429911244	20.5343444042155	27.5547584162318	0.865042218042048	365.714273935425	1.3774831954412	167	4.28901279760839	166	0
36	O1-O2	114371	114540	169	15.2065254260659	11.7936294318339	91.5307810165401	3.30381573231964	121.549157402838	3.29536526802072	135	4.55398804809112	134	0
36	O1-O2	114982	115086	104	20.0584795514799	10.5496353082707	104.183402714266	6.98696286452272	109.588219087558	7.67519550568123	91	9.11411875492554	90	0
36	O1-O2	115292	115379	87	12.2881869818533	11.025613077237	51.2716190395615	3.05741065948959	109.588219087558	2.92237227584451	83	3.45832162835163	116	0
36	O1-O2	115634	115816	182	18.5217064474619	9.45249700228571	109.588219087558	7.01956108367847	109.588219087558	3.65817990113566	144	7.85897101169184	143	0
36	O1-O2	115982	116061	79	16.5498220143491	10.9059344657194	80.4961120284437	5.50014993182505	109.588219087558	2.53571911113707	168	6.96621106669086	167	0
36	O1-O2	116150	116210	60	11.2268643207245	10.2500614692716	56.2317246138268	2.68430793304383	109.588219087558	2.1589811734113	173	5.33444308896746	172	0
36	O1-O2	116402	116473	71	14.697086845594	9.90632525683495	58.8542134965232	4.56924858957471	109.588219087558	2.12242731759466	158	8.1603444636418	157	0
36	O1-O2	116799	116964	165	13.5199050309854	8.19085710894656	66.2402082439986	4.12021532754942	80.4961120284437	2.81673897693903	117	3.1192556001655	143	0
36	O1-O2	117253	117315	62	9.03599371119233	8.24900573479198	38.3693405922838	1.87364666585884	66.2402082439986	1.31210972339257	159	4.74508173260594	158	0
36	O1-O2	117654	117736	82	11.6742332073673	7.36236474221357	45.2539792234787	3.80537843680632	66.2402082439986	3.70980589660783	169	5.24552945261465	179	0
36	O1-O2	117973	118147	174	8.732330557618	6.63793978572817	42.6095678675668	2.03664779051233	56.6621042028864	2.55338365820264	147	2.72870690775292	146	0
36	O1-O2	118362	118462	100	7.73003375021273	6.83538795338945	26.9364888042565	1.51318915041528	56.6621042028864	0.879223274147674	179	3.43453822405472	193	0
36	O1-O2	276999	277166	167	11.6875599063037	4.59183330121477	57.1295547188652	8.81141111485019	59.6751008437307	2.93804463445621	83	2.9570106929071	104	0
36	O1-O2	277690	277765	75	12.7439470268607	5.91523637184612	44.3610058808075	6.32623713191675	59.6751008437307	5.22726573434961	89	5.98451395574007	88	0
36	O1-O2	279367	279489	122	8.02440727031912	5.67202736887152	36.9328722161573	2.00147094519207	52.0753137664939	0.769476675826228	NaN	4.14026541064069	300	0
36	O1-O2	281378	281428	50	7.32401716367548	3.75225165824699	25.6213375454784	3.80991064691462	29.2798522330851	1.89943561209209	149	2.11742872343059	148	0
37	F7-C3	112231	112282	51	5.95629337199065	4.73602634914331	23.666402826632	3.536660082496	64.3927106266769	1.55310818337343	125	1.84226920538351	159	0
37	F7-C3	112662	112912	250	10.431923491265	4.49845491331113	64.3927106266769	7.84432189382734	64.3927106266769	2.07939152622176	136	4.38067489835326	135	0
37	F7-C3	113820	114010	190	17.5659479268114	5.85621052889042	90.6464726504105	10.1232429521532	96.2096172529773	4.32722036838721	105	5.12225145814119	104	0
38	C3-Fz	113893	113972	79	7.78386033570796	2.53519904855418	30.925754564611	9.42683581951284	30.925754564611	1.65021933185894	83	0.770179666297356	82	1
38	C3-Fz	124467	124554	87	3.98323100139572	2.05493375029889	13.4747515290879	3.75729536385289	14.536676918514	0.457790598433339	105	0.475375353555199	124	0
38	C3-Fz	139346	139406	60	5.9285542134434	1.92117891969337	20.1473191695733	9.52274085479132	20.1473191695733	1.33907096940627	83	0.8012337742373	82	1
38	C3-Fz	401015	401096	81	5.15216234296868	1.95447789459586	18.5453106788825	6.94892384808651	18.5453106788825	0.387326101791344	NaN	3.72164600789454	300	1
38	C3-Fz	494562	494655	93	4.31736612004332	1.90610663039999	15.1497251956983	5.13030723492551	17.8911090840766	0.788656358301497	87	0.535857023884345	86	1
39	F8-C4	112766	113138	372	17.800555122182	6.47269370183983	133.251046610958	10.9968359192041	133.251046610958	3.32205117569531	139	6.1801390451452	138	0
39	F8-C4	113672	113741	69	8.3811568031459	11.1275081159041	30.91898471264	1.42722304310646	133.251046610958	0.851058692796624	175	3.38655009239254	198	0
39	F8-C4	113932	114065	133	14.2276321559997	7.96879417838116	61.8571865288319	4.12915771397811	68.0224741140534	2.81207539417562	157	6.9245703881446	205	0
39	F8-C4	114210	114659	449	10.6453662660645	6.89420810532157	64.6099402176279	3.22969910336878	68.0224741140534	1.98611349434584	169	3.81743073389268	228	0
39	F8-C4	157580	157631	51	4.69009142152269	2.93702782368561	16.0597655043266	2.55003707659596	21.4567086900336	0.301068415237123	162	2.4534636288918	195	0
40	C4-Fz	113980	114024	44	14.7224277524633	3.26726961223546	68.7794939770915	20.3043418369865	68.7794939770915	2.75717026100069	144	6.66249905547364	211	0
40	C4-Fz	420358	420427	69	6.62853002593006	2.17240125847213	22.3757630332353	9.31010039857597	22.3757630332353	1.36515005924664	83	1.02836159813441	82	1
41	T5-C3	9273	9347	74	4.91305208644262	2.27500810591843	18.0208618987296	4.66376694506867	18.0208618987296	0.571034148192296	83	0.578874919128169	82	1
41	T5-C3	112778	112887	109	8.25408134678909	5.69643847076879	35.8900371456966	2.53361502767015	40.4917214826295	3.28036883342764	83	2.26524781318181	82	0
41	T5-C3	113125	113247	122	7.84510498568326	6.38198634709384	32.6297904057718	2.04147942207531	67.6401463776471	1.80282402766133	143	1.85086695632914	142	0
41	T5-C3	113406	113587	181	6.09048889642186	6.53143010266351	27.5270322417774	1.19836284239021	67.6401463776471	1.88388390926483	138	2.22890273408453	137	0
41	T5-C3	113806	114007	201	10.3913129109901	5.49274569524226	67.6401463776471	4.20888411105884	67.6401463776471	2.64739637574257	132	2.82321119653244	169	0
41	T5-C3	119884	119983	99	7.01160232850505	2.32910318936997	27.9512898544774	9.0626893384379	27.9512898544774	1.24346492143649	77	1.25486665786706	82	1
41	T5-C3	284492	284598	106	10.7017836408838	3.4736308763996	53.1658424151244	10.8894882416249	53.1658424151244	1.42294883055919	91	2.1364227527437	111	0
41	T5-C3	284867	284940	73	7.23717422163165	4.03344902268119	27.0530939424644	4.88830683888289	53.1658424151244	1.0995488668584	116	2.20499615106134	115	1
41	T5-C3	494556	494632	76	6.25331102698976	2.05459937617215	26.0038848091587	9.2633005795957	26.0038848091587	0.449256668004091	NaN	14.9789593450937	300	1
43	T6-C4	112664	112883	219	11.0747348427192	11.4932536589048	53.3231406586096	2.05092413068279	173.599017071922	3.01024581195055	83	3.5302273374724	82	0
43	T6-C4	112972	113017	45	7.37114117180381	12.2266410738146	27.0160734232932	0.739803563155667	173.599017071922	0.834918699769882	186	3.1427769372536	185	0
43	T6-C4	113104	113319	215	26.3415552892615	8.98917064522573	173.599017071922	9.4619761953536	173.599017071922	4.55175809160563	109	9.60609237047304	108	0
43	T6-C4	113455	113514	59	10.468426969872	12.2456007896102	50.2303583535516	1.40120796905242	173.599017071922	1.83536946949136	124	4.87683668773433	198	0
43	T6-C4	113639	113708	69	11.3864978615808	12.1236631021212	49.976835676169	1.72793489396966	173.599017071922	2.35200625258766	101	2.36448149186458	107	0
43	T6-C4	113894	113947	53	9.73549815519501	11.7518679473843	36.5279313258529	1.38382204612135	173.599017071922	2.74460886727541	160	3.68875324271867	159	0
43	T6-C4	114131	114204	73	6.49234091249891	11.8413180818323	26.175053982833	0.610618154638846	173.599017071922	1.10778159382956	173	3.06297466005324	172	0
43	T6-C4	115742	115796	54	11.9798295585348	5.78160414551522	43.656814989032	4.3486418169861	58.2037012414565	1.86091331965469	147	6.34896241656628	146	0
43	T6-C4	116036	116112	76	6.63517627621203	5.6182747442821	25.1315204653052	1.65231420098236	43.656814989032	2.31335301851065	73	2.33648390885849	82	0
43	T6-C4	116818	116885	67	8.76520087709313	4.89939185280821	32.032356646102	3.31124896852425	32.4629375931499	2.0401113833088	113	2.32286065801703	142	0
43	T6-C4	277084	277154	70	9.35129022666203	3.26922719705656	36.5310113748561	8.18187547712806	37.304469708823	2.01772405788766	83	2.77288087421931	107	1
45	T3-P3	112700	113056	356	24.6214399874998	5.27442628277107	180.324021281211	29.7261810395831	180.324021281211	6.60436259927724	165	7.47511277296681	164	0
45	T3-P3	113271	113447	176	10.2130237187461	11.528881429422	49.5586916746689	3.57512560068548	180.324021281211	3.66100984460743	136	3.87500629579263	186	0
45	T3-P3	114102	114178	76	6.95310292235949	6.06978515205063	32.8092930553775	1.59598326649196	73.7500230895575	1.54238355074759	124	1.62276194693841	153	0
45	T3-P3	126610	126685	75	7.05339909036758	5.34953467837088	29.1221477062944	1.8814828843629	48.6627699782425	1.89930442984345	139	2.3458345887478	138	0
45	T3-P3	126969	127009	40	10.9076701099249	5.67592658235867	47.2105197693826	3.78759410133693	50.8598780293928	2.88394584429662	104	3.51953281982216	142	0
45	T3-P3	127379	127447	68	5.87468787905311	5.6372777961625	22.1270936689781	1.18374416135827	50.8598780293928	1.09464061193812	166	3.05376808929732	165	0
45	T3-P3	420400	420499	99	5.35906250485163	2.22979393331815	20.565083103201	5.77627931747733	20.565083103201	1.64515209497447	83	0.881368608781772	82	0
46	P3-Cz	119897	119974	77	5.71755566247997	2.05426255932109	20.2913577038309	7.74656021322916	20.2913577038309	0.716466531347251	80	0.940600708489146	82	1
46	P3-Cz	349456	349505	49	3.55529171300304	1.84540548505313	12.0973403078472	3.71164872102139	12.509560019096	0.594120188306674	178	1.77286354844608	177	0
46	P3-Cz	400994	401086	92	5.58367492990739	1.97541055095624	22.9139094579431	7.98960879786186	22.9139094579431	0.677260819355606	100	0.688178829545925	109	0
46	P3-Cz	420503	420586	83	4.19108596475918	2.05245341883449	15.1155412175952	4.16971641075395	15.1155412175952	0.455762678716077	91	0.560251282503474	90	1
46	P3-Cz	494556	494676	120	5.97083501556267	2.23445692841613	23.8056308207717	7.14045961031407	23.8056308207717	0.887048493268501	83	0.631304656597002	82	1
47	T4-P4	112773	112836	63	10.699164291382	5.27515011964923	44.1058305693296	4.1136758421982	58.6796900438981	1.2144041324783	123	2.03205831716699	133	0
48	P4-Cz	114984	115029	45	7.4126949786976	3.362604025887	27.4357560232603	4.85960312474946	45.5474806641915	1.1232737060098	162	3.7158965326681	161	0
49	T3-F3	1278	1324	46	5.43221095563147	2.26663959889199	18.5538344264738	5.74365453833699	19.8283782571372	1.2685127483396	83	0.870050891580513	82	1
49	T3-F3	112699	112968	269	28.1335075246451	5.75874186394401	188.145652300748	33.3887840508244	188.145652300748	7.89358637793639	166	8.96307218764459	165	0
49	T3-F3	113248	113446	198	10.8976054329205	11.6800826859037	50.4083601788366	3.47367060963329	188.145652300748	3.65611851327521	145	3.97440927712637	184	0
49	T3-F3	114651	114701	50	6.7577624098814	4.618838650375	25.0312612166527	2.14062333226137	40.8461460623076	1.37551790463896	179	3.49237642628939	178	0
49	T3-F3	127101	127149	48	4.86852483236229	5.861615876963	15.7389167087354	0.684581283099883	44.4212341799357	1.49561113820751	107	1.84081047599456	136	0
49	T3-F3	127452	127530	78	5.28375000401242	5.55761525744277	21.3606470088566	0.898623557603563	44.4212341799357	1.76958595856131	89	2.45560603404402	88	0
49	T3-F3	134216	134268	52	3.94937980059997	2.80542770735517	12.3514402272219	1.98179914808926	23.3095048036662	0.588134491418636	136	2.00890144359728	135	0
49	T3-F3	215594	215671	77	4.80776361827877	1.96793273634777	16.6185934601347	5.96850707429347	16.6185934601347	0.997266215715186	83	0.747845657197708	82	1
49	T3-F3	284517	284585	68	6.02955789608537	2.32027315536128	23.4951407687896	6.75293715996412	23.8402664874854	0.838982429009977	117	3.50996206727098	116	0
50	F3-Cz	17161	17221	60	4.45673454675693	1.7539541745534	15.1594491880818	6.45649843049988	15.1594491880818	0.51484535075976	100	0.58115457557112	110	1
50	F3-Cz	64686	64737	51	4.16876570667836	1.81616181122047	14.3926924424061	5.26872942773165	14.3926924424061	0.497146158446617	152	2.1524035719727	151	1
50	F3-Cz	106381	106455	74	3.80840892273623	1.88574261435548	15.0189867705186	4.07870520484332	17.3677122253963	0.537123725262336	118	0.650121147381155	136	1
50	F3-Cz	113971	114025	54	6.86873888225944	2.64806817255417	24.1892932127805	6.72815039360913	27.0183520810313	2.88547352978262	83	2.06857964433107	82	0
50	F3-Cz	215535	215619	84	4.39363011879644	1.778394361169	15.0742999068701	6.10366711887861	15.0742999068701	0.726764223058974	83	0.489850035092248	82	1
50	F3-Cz	293751	293807	56	6.01736520775781	1.69558147720193	24.2273349411817	12.5943400161816	24.2273349411817	2.02511700614805	83	2.74845655945304	82	1
50	F3-Cz	458472	458548	76	4.15786496002393	2.16302867681681	14.5817572935888	3.69501500016559	15.3085966344737	0.44378625761681	84	0.548848887125281	83	0
51	T4-F4	112801	112879	78	11.9256760313017	5.06919126515677	51.9124064318488	5.53463084153289	55.1725073266365	2.4932965601938	106	4.03611241935833	105	0
51	T4-F4	284518	284582	64	11.7567272656546	4.08670205261226	61.0318880274253	8.27612297203179	61.0318880274253	4.87517198679671	90	3.28165870129792	89	0
51	T4-F4	551880	551935	55	8.48066453166341	2.69843746615672	28.75865235515	9.87722739293174	28.75865235515	1.33057111982534	102	1.38373986687033	109	1
52	F4-Cz	458414	458494	80	5.35087531365293	2.51835691116178	19.3363800799401	4.51455660031288	23.7752615502293	0.658375498951266	75	0.895439124789467	100	1
52	F4-Cz	551848	551921	73	7.42906008619592	2.2724601068635	29.1854373476045	10.6874773186995	29.1854373476045	1.01748077086624	116	0.994771344230524	115	1
